Wavelength (Å) - Plot 0,Signal Amplitude (V) - Plot 0
3480.1,0.0144
3485.1,0.0145
3490.1,0.0145
3495.1,0.0145
3500.1,0.0147
3505.1,0.0145
3510.1,0.0145
3515.1,0.0146
3520.1,0.0145
3525.1,0.0144
3530.1,0.0145
3535.1,0.0145
3540.1,0.0145
3545.1,0.0143
3550.1,0.0146
3555.1,0.0145
3560.1,0.0145
3565.1,0.0145
3570.1,0.0145
3575.1,0.0145
3580.1,0.0147
3585.1,0.0145
3590.1,0.0147
3595.1,0.0145
3600.1,0.0145
3605.1,0.0147
3610.1,0.0146
3615.1,0.0146
3620.1,0.0147
3625.1,0.0147
3630.1,0.0145
3635.1,0.0147
3640.1,0.0148
3645.1,0.0147
3650.1,0.0147
3655.1,0.0147
3660.1,0.0144
3665.1,0.0146
3670.1,0.0146
3675.1,0.0147
3680.1,0.0147
3685.1,0.0146
3690.1,0.0146
3695.1,0.0147
3700.1,0.0147
3705.1,0.0146
3710.1,0.0145
3715.1,0.0147
3720.1,0.0147
3725.1,0.0147
3730.1,0.0146
3735.1,0.0147
3740.1,0.0146
3745.1,0.0145
3750.1,0.0147
3755.1,0.0146
3760.1,0.0147
3765.1,0.0146
3770.1,0.0147
3775.1,0.0147
3780.1,0.0147
3785.1,0.0146
3790.1,0.0147
3795.1,0.0148
3800.1,0.0148
3805.1,0.0146
3810.1,0.0147
3815.1,0.0145
3820.1,0.0147
3825.1,0.0147
3830.1,0.0147
3835.1,0.0146
3840.1,0.0147
3845.1,0.015
3850.1,0.0148
3855.1,0.0146
3860.1,0.0149
3865.1,0.0148
3870.1,0.0148
3875.1,0.0146
3880.1,0.0146
3885.1,0.015
3890.1,0.0153
3895.1,0.0157
3900.1,0.0148
3905.1,0.0148
3910.1,0.0147
3915.1,0.0147
3920.1,0.0147
3925.1,0.0151
3930.1,0.0158
3935.1,0.0165
3940.1,0.0148
3945.1,0.0146
3950.1,0.0148
3955.1,0.0149
3960.1,0.0148
3965.1,0.0149
3970.1,0.0148
3975.1,0.0148
3980.1,0.0156
3985.1,0.0173
3990.1,0.0158
3995.1,0.0146
4000.1,0.0147
4005.1,0.0146
4010.1,0.0147
4015.1,0.0148
4020.1,0.0146
4025.1,0.0147
4030.1,0.0146
4035.1,0.0147
4040.1,0.0147
4045.1,0.0147
4050.1,0.0148
4055.1,0.0146
4060.1,0.0174
4065.1,0.0206
4070.1,0.0293
4075.1,0.0207
4080.1,0.0148
4085.1,0.0149
4090.1,0.0149
4095.1,0.0148
4100.1,0.0148
4105.1,0.0148
4110.1,0.0146
4115.1,0.0147
4120.1,0.0149
4125.1,0.0147
4130.1,0.0148
4135.1,0.0148
4140.1,0.0147
4145.1,0.0147
4150.1,0.0147
4155.1,0.0151
4160.1,0.0153
4165.1,0.0151
4170.1,0.015
4175.1,0.0149
4180.1,0.0151
4185.1,0.0158
4190.1,0.0246
4195.1,0.0338
4200.1,0.0781
4205.1,0.0154
4210.1,0.0149
4215.1,0.0149
4220.1,0.0148
4225.1,0.0148
4230.1,0.0149
4235.1,0.015
4240.1,0.0149
4245.1,0.0148
4250.1,0.0149
4255.1,0.0149
4260.1,0.0149
4265.1,0.0151
4270.1,0.015
4275.1,0.015
4280.1,0.015
4285.1,0.0149
4290.1,0.0148
4295.1,0.015
4300.1,0.015
4305.1,0.0151
4310.1,0.0151
4315.1,0.015
4320.1,0.0148
4325.1,0.0146
4330.1,0.0146
4335.1,0.0148
4340.1,0.0147
4345.1,0.0147
4350.1,0.0149
4355.1,0.0146
4360.1,0.0147
4365.1,0.0148
4370.1,0.0147
4375.1,0.0149
4380.1,0.0148
4385.1,0.0149
4390.1,0.0149
4395.1,0.0148
4400.1,0.015
4405.1,0.015
4410.1,0.0149
4415.1,0.0148
4420.1,0.0153
4425.1,0.0157
4430.1,0.0683
4435.1,0.1112
4440.1,0.3287
4445.1,0.2803
4450.1,0.0154
4455.1,0.0151
4460.1,0.015
4465.1,0.0149
4470.1,0.0151
4475.1,0.0148
4480.1,0.0149
4485.1,0.0149
4490.1,0.015
4495.1,0.0148
4500.1,0.0149
4505.1,0.015
4510.1,0.0153
4515.1,0.0153
4520.1,0.0152
4525.1,0.0151
4530.1,0.0148
4535.1,0.015
4540.1,0.0149
4545.1,0.0151
4550.1,0.0154
4555.1,0.0151
4560.1,0.0153
4565.1,0.0151
4570.1,0.0149
4575.1,0.0151
4580.1,0.0151
4585.1,0.0152
4590.1,0.0156
4595.1,0.0151
4600.1,0.0156
4605.1,0.0151
4610.1,0.015
4615.1,0.0153
4620.1,0.0151
4625.1,0.0151
4630.1,0.0152
4635.1,0.0153
4640.1,0.0152
4645.1,0.015
4650.1,0.0152
4655.1,0.0152
4660.1,0.0152
4665.1,0.0153
4670.1,0.0154
4675.1,0.0157
4680.1,0.0158
4685.1,0.0153
4690.1,0.015
4695.1,0.015
4700.1,0.015
4705.1,0.015
4710.1,0.0152
4715.1,0.015
4720.1,0.0154
4725.1,0.0155
4730.1,0.0161
4735.1,0.0161
4740.1,0.0152
4745.1,0.0152
4750.1,0.0153
4755.1,0.0152
4760.1,0.0151
4765.1,0.015
4770.1,0.015
4775.1,0.0149
4780.1,0.015
4785.1,0.0151
4790.1,0.0149
4795.1,0.0147
4800.1,0.0148
4805.1,0.0146
4810.1,0.0149
4815.1,0.0149
4820.1,0.0149
4825.1,0.0147
4830.1,0.0147
4835.1,0.0149
4840.1,0.0148
4845.1,0.0148
4850.1,0.0147
4855.1,0.0145
4860.1,0.0145
4865.1,0.0147
4870.1,0.0147
4875.1,0.0145
4880.1,0.0147
4885.1,0.0148
4890.1,0.0148
4895.1,0.0148
4900.1,0.0149
4905.1,0.0147
4910.1,0.015
4915.1,0.0149
4920.1,0.0151
4925.1,0.0153
4930.1,0.0156
4935.1,0.016
4940.1,0.0167
4945.1,0.0194
4950.1,0.1443
4955.1,0.26
4960.1,1.2776
4965.1,1.1157
4970.1,0.0211
4975.1,0.0179
4980.1,0.0164
4985.1,0.0156
4990.1,0.0152
4995.1,0.015
5000.1,0.015
5005.1,0.0149
5010.1,0.0148
5015.1,0.0148
5020.1,0.0149
5025.1,0.0148
5030.1,0.0153
5035.1,0.0152
5040.1,0.0147
5045.1,0.0146
5050.1,0.0145
5055.1,0.0146
5060.1,0.0145
5065.1,0.0146
5070.1,0.0147
5075.1,0.0148
5080.1,0.0147
5085.1,0.0147
5090.1,0.0146
5095.1,0.0146
5100.1,0.0148
5105.1,0.0147
5110.1,0.0146
5115.1,0.0147
5120.1,0.0145
5125.1,0.0144
5130.1,0.0145
5135.1,0.0143
5140.1,0.0144
5145.1,0.0144
5150.1,0.0144
5155.1,0.0144
5160.1,0.0143
5165.1,0.0144
5170.1,0.0144
5175.1,0.0145
5180.1,0.0146
5185.1,0.0144
5190.1,0.0144
5195.1,0.0144
5200.1,0.0143
5205.1,0.0145
5210.1,0.0145
5215.1,0.0144
5220.1,0.0145
5225.1,0.0143
5230.1,0.0143
5235.1,0.0144
5240.1,0.0144
5245.1,0.0144
5250.1,0.0145
5255.1,0.0144
5260.1,0.0142
5265.1,0.0141
5270.1,0.0141
5275.1,0.0141
5280.1,0.0141
5285.1,0.0142
5290.1,0.0143
5295.1,0.0141
5300.1,0.0141
5305.1,0.0141
5310.1,0.0142
5315.1,0.0141
5320.1,0.0141
5325.1,0.0141
5330.1,0.0142
5335.1,0.014
5340.1,0.014
5345.1,0.0141
5350.1,0.014
5355.1,0.0141
5360.1,0.014
5365.1,0.0141
5370.1,0.014
5375.1,0.0139
5380.1,0.0138
5385.1,0.0139
5390.1,0.0139
5395.1,0.014
5400.1,0.0141
5405.1,0.014
5410.1,0.014
5415.1,0.0141
5420.1,0.0139
5425.1,0.014
5430.1,0.014
5435.1,0.014
5440.1,0.014
5445.1,0.014
5450.1,0.0138
5455.1,0.014
5460.1,0.0141
5465.1,0.0138
5470.1,0.0141
5475.1,0.014
5480.1,0.014
5485.1,0.0138
5490.1,0.0141
5495.1,0.0139
5500.1,0.0141
5505.1,0.0139
5510.1,0.0139
5515.1,0.0141
5520.1,0.014
5525.1,0.014
5530.1,0.014
5535.1,0.0139
5540.1,0.014
5545.1,0.0138
5550.1,0.014
5555.1,0.0138
5560.1,0.014
5565.1,0.0139
5570.1,0.014
5575.1,0.014
5580.1,0.0139
5585.1,0.0141
5590.1,0.014
5595.1,0.0139
5600.1,0.014
5605.1,0.014
5610.1,0.0141
5615.1,0.0141
5620.1,0.0138
5625.1,0.0139
5630.1,0.014
5635.1,0.014
5640.1,0.0141
5645.1,0.0139
5650.1,0.014
5655.1,0.0139
5660.1,0.0139
5665.1,0.0139
5670.1,0.014
5675.1,0.0139
5680.1,0.014
5685.1,0.0139
5690.1,0.0139
5695.1,0.0139
5700.1,0.014
5705.1,0.0139
5710.1,0.014
5715.1,0.0139
5720.1,0.0139
5725.1,0.014
5730.1,0.014
5735.1,0.0141
5740.1,0.0141
5745.1,0.014
5750.1,0.0141
5755.1,0.014
5760.1,0.0142
5765.1,0.0141
5770.1,0.014
5775.1,0.0142
5780.1,0.0143
5785.1,0.0144
5790.1,0.0143
5795.1,0.0141
5800.1,0.0141
5805.1,0.0142
5810.1,0.014
5815.1,0.0142
5820.1,0.0141
5825.1,0.0141
5830.1,0.0143
5835.1,0.0144
5840.1,0.0143
5845.1,0.0141
5850.1,0.0141
5855.1,0.0142
5860.1,0.0144
5865.1,0.0141
5870.1,0.0143
5875.1,0.0143
5880.1,0.0142
5885.1,0.0142
5890.1,0.0145
5895.1,0.0144
5900.1,0.0143
5905.1,0.0145
5910.1,0.0148
5915.1,0.0159
5920.1,0.0149
5925.1,0.0146
5930.1,0.0142
5935.1,0.0146
5940.1,0.0148
5945.1,0.014
5950.1,0.0141
5955.1,0.0141
5960.1,0.0141
5965.1,0.0142
5970.1,0.0143
5975.1,0.0143
5980.1,0.0144
5985.1,0.0145
5990.1,0.0145
5995.1,0.0142
6000.1,0.014
6005.1,0.0142
6010.1,0.0142
6015.1,0.0143
6020.1,0.0144
6025.1,0.0141
6030.1,0.0143
6035.1,0.0144
6040.1,0.0148
6045.1,0.0142
6050.1,0.0144
6055.1,0.014
6060.1,0.0142
6065.1,0.0143
6070.1,0.0145
6075.1,0.0146
6080.1,0.0143
6085.1,0.0146
6090.1,0.0142
6095.1,0.0142
6100.1,0.014
6105.1,0.0142
6110.1,0.0142
6115.1,0.0142
6120.1,0.0147
6125.1,0.0144
6130.1,0.0147
6135.1,0.0147
6140.1,0.014
6145.1,0.014
6150.1,0.0141
6155.1,0.0143
6160.1,0.0142
6165.1,0.0142
6170.1,0.0144
6175.1,0.0139
6180.1,0.0141
6185.1,0.0142
6190.1,0.0141
6195.1,0.0141
6200.1,0.0141
6205.1,0.0138
6210.1,0.0139
6215.1,0.014
6220.1,0.0139
6225.1,0.0142
6230.1,0.014
6235.1,0.0141
6240.1,0.0142
6245.1,0.014
6250.1,0.014
6255.1,0.0142
6260.1,0.0143
6265.1,0.0141
6270.1,0.014
6275.1,0.0141
6280.1,0.014
6285.1,0.0141
6290.1,0.0139
6295.1,0.0141
6300.1,0.0139
6305.1,0.014
6310.1,0.0139
6315.1,0.0139
6320.1,0.014
6325.1,0.0141
6330.1,0.0139
6335.1,0.014
6340.1,0.0142
6345.1,0.0138
6350.1,0.014
6355.1,0.0138
6360.1,0.0139
6365.1,0.0142
6370.1,0.0141
6375.1,0.0144
6380.1,0.0144
6385.1,0.0144
6390.1,0.0144
6395.1,0.0146
6400.1,0.0147
6405.1,0.0144
6410.1,0.0147
6415.1,0.0148
6420.1,0.0149
6425.1,0.0149
6430.1,0.0151
6435.1,0.015
6440.1,0.015
6445.1,0.015
6450.1,0.0151
6455.1,0.0151
6460.1,0.0149
6465.1,0.0147
6470.1,0.0146
6475.1,0.0146
6480.1,0.0145
6485.1,0.0146
6490.1,0.0146
6495.1,0.0144
6500.1,0.0145
6505.1,0.0143
6510.1,0.0143
6515.1,0.0146
6520.1,0.0145
6525.1,0.0145
6530.1,0.0147
6535.1,0.0147
6540.1,0.0149
6545.1,0.0147
6550.1,0.0144
6555.1,0.0147
6560.1,0.0147
6565.1,0.0145
6570.1,0.0147
6575.1,0.0148
6580.1,0.0148
6585.1,0.0148
6590.1,0.0148
6595.1,0.0148
6600.1,0.0149
6605.1,0.015
6610.1,0.015
6615.1,0.0153
6620.1,0.0153
6625.1,0.0158
6630.1,0.0163
6635.1,0.0167
6640.1,0.0186
6645.1,0.0256
6650.1,0.0403
6655.1,0.6782
6660.1,0.8598
6665.1,4.898
6670.1,0.0645
6675.1,0.0286
6680.1,0.0211
6685.1,0.0174
6690.1,0.0164
6695.1,0.0157
6700.1,0.0153
6705.1,0.0149
6710.1,0.0146
6715.1,0.0146
6720.1,0.0145
6725.1,0.0143
6730.1,0.0142
6735.1,0.014
6740.1,0.0142
6745.1,0.0141
6750.1,0.0142
6755.1,0.014
6760.1,0.0142
6765.1,0.0139
6770.1,0.014
6775.1,0.0141
6780.1,0.0141
6785.1,0.0143
6790.1,0.0146
6795.1,0.0141
6800.1,0.0139
6805.1,0.0141
6810.1,0.0141
6815.1,0.0141
6820.1,0.014
6825.1,0.0142
6830.1,0.014
6835.1,0.014
6840.1,0.014
6845.1,0.014
6850.1,0.0138
6855.1,0.014
6860.1,0.0141
6865.1,0.0141
6870.1,0.0141
6875.1,0.0141
6880.1,0.0141
6885.1,0.0142
6890.1,0.0142
6895.1,0.0141
6900.1,0.0144
6905.1,0.0144
6910.1,0.0145
6915.1,0.0143
6920.1,0.0145
6925.1,0.0142
6930.1,0.0145
6935.1,0.0145
6940.1,0.0145
6945.1,0.0146
6950.1,0.0148
6955.1,0.0146
6960.1,0.0142
6965.1,0.0138
6970.1,0.0137
6975.1,0.0137
6980.1,0.0137
6985.1,0.0137
6990.1,0.0136
6995.1,0.0136
7000.1,0.0137
7005.1,0.0135
7010.1,0.0136
7015.1,0.0136
7020.1,0.0137
7025.1,0.0135
7030.1,0.0137
7035.1,0.0137
7040.1,0.0137
7045.1,0.0135
7050.1,0.0136
7055.1,0.0136
7060.1,0.0136
7065.1,0.0136
7070.1,0.0136
7075.1,0.0137
7080.1,0.0136
7085.1,0.0137
7090.1,0.0137
7095.1,0.0136
7100.1,0.0135
7105.1,0.0138
7110.1,0.0136
7115.1,0.0136
7120.1,0.0136
7125.1,0.0136
7130.1,0.0138
7135.1,0.0136
7140.1,0.0136
7145.1,0.0137
7150.1,0.0137
7155.1,0.0136
7160.1,0.0137
7165.1,0.0138
7170.1,0.0136
7175.1,0.0136
7180.1,0.0135
7185.1,0.0136
7190.1,0.0134
7195.1,0.0137
7200.1,0.0137
7205.1,0.0136
7210.1,0.0135
7215.1,0.0137
7220.1,0.0135
7225.1,0.0135
7230.1,0.0135
7235.1,0.0136
7240.1,0.0136
7245.1,0.0136
7250.1,0.0136
7255.1,0.0135
7260.1,0.0136
7265.1,0.0135
7270.1,0.0136
7275.1,0.0135
7280.1,0.0135
7285.1,0.0135
7290.1,0.0136
7295.1,0.0135
7300.1,0.0135
7305.1,0.0137
7310.1,0.0135
7315.1,0.0135
7320.1,0.0136
7325.1,0.0136
7330.1,0.0136
7335.1,0.0135
7340.1,0.0136
7345.1,0.0136
7350.1,0.0137
7355.1,0.0137
7360.1,0.0136
7365.1,0.0137
7370.1,0.0135
7375.1,0.0136
7380.1,0.0135
7385.1,0.0136
7390.1,0.0136
7395.1,0.0136
7400.1,0.0136
7405.1,0.0135
7410.1,0.0135
7415.1,0.0135
7420.1,0.0136
7425.1,0.0135
7430.1,0.0135
7435.1,0.0135
7440.1,0.0136
7445.1,0.0134
7450.1,0.0136
7455.1,0.0134
7460.1,0.0136
7465.1,0.0136
7470.1,0.0136
7475.1,0.0136
7480.1,0.0136
7485.1,0.0135
7490.1,0.0135
7495.1,0.0136
7500.1,0.0135
7505.1,0.0134
7510.1,0.0134
7515.1,0.0136
7520.1,0.0135
7525.1,0.0135
7530.1,0.0136
7535.1,0.0136
7540.1,0.0136
7545.1,0.0134
7550.1,0.0136
7555.1,0.0134
7560.1,0.0135
7565.1,0.0134
7570.1,0.0136
7575.1,0.0136
7580.1,0.0136
7585.1,0.0136
7590.1,0.0135
7595.1,0.0136
7600.1,0.0136
7605.1,0.0135
7610.1,0.0136
7615.1,0.0135
7620.1,0.0135
7625.1,0.0135
7630.1,0.0136
7635.1,0.0136
7640.1,0.0136
7645.1,0.0133
7650.1,0.0134
7655.1,0.0135
7660.1,0.0135
7665.1,0.0135
7670.1,0.0134
7675.1,0.0135
7680.1,0.0135
7685.1,0.0135
7690.1,0.0134
7695.1,0.0134
7700.1,0.0134
7705.1,0.0135
7710.1,0.0135
7715.1,0.0136
7720.1,0.0134
7725.1,0.0134
7730.1,0.0136
7735.1,0.0135
7740.1,0.0135
7745.1,0.0133
7750.1,0.0135
7755.1,0.0135
7760.1,0.0136
7765.1,0.0135
7770.1,0.0134
7775.1,0.0136
7780.1,0.0135
7785.1,0.0134
7790.1,0.0133
7795.1,0.0135
7800.1,0.0135
7805.1,0.0136
7810.1,0.0135
7815.1,0.0134
7820.1,0.0134
7825.1,0.0136
7830.1,0.0136
7835.1,0.0137
7840.1,0.0134
7845.1,0.0134
7850.1,0.0134
7855.1,0.0136
7860.1,0.0137
7865.1,0.0135
7870.1,0.0136
7875.1,0.014
7880.1,0.0139
7885.1,0.0136
7890.1,0.0135
7895.1,0.0136
7900.1,0.0135
7905.1,0.0137
7910.1,0.0134
7915.1,0.0136
7920.1,0.0134
7925.1,0.0137
7930.1,0.0136
7935.1,0.0137
7940.1,0.0135
7945.1,0.0136
7950.1,0.0134
7955.1,0.0134
7960.1,0.0134
7965.1,0.0135
7970.1,0.0134
7975.1,0.0136
7980.1,0.0134
7985.1,0.0134
7990.1,0.0135
