Wavelength(10nm),Signal_Amplitude(V)
3240.1,0.015
3241.1,0.0151
3242.1,0.015
3243.1,0.0149
3244.1,0.015
3245.1,0.0149
3246.1,0.0152
3247.1,0.0151
3248.1,0.0151
3249.1,0.0151
3250.1,0.0152
3251.1,0.0151
3252.1,0.0151
3253.1,0.0151
3254.1,0.0152
3255.1,0.0152
3256.1,0.0152
3257.1,0.0152
3258.1,0.0151
3259.1,0.015
3260.1,0.015
3261.1,0.0151
3262.1,0.0151
3263.1,0.015
3264.1,0.0152
3265.1,0.0152
3266.1,0.0151
3267.1,0.0152
3268.1,0.0152
3269.1,0.015
3270.1,0.0152
3271.1,0.015
3272.1,0.0151
3273.1,0.0152
3274.1,0.0152
3275.1,0.0152
3276.1,0.0151
3277.1,0.0152
3278.1,0.0152
3279.1,0.015
3280.1,0.0152
3281.1,0.0153
3282.1,0.0152
3283.1,0.0155
3284.1,0.0155
3285.1,0.0153
3286.1,0.0152
3287.1,0.0152
3288.1,0.0152
3289.1,0.0152
3290.1,0.0154
3291.1,0.0154
3292.1,0.0155
3293.1,0.0154
3294.1,0.0154
3295.1,0.0154
3296.1,0.0153
3297.1,0.0153
3298.1,0.0154
3299.1,0.0152
3300.1,0.0154
3301.1,0.0155
3302.1,0.0156
3303.1,0.0156
3304.1,0.0156
3305.1,0.0155
3306.1,0.0154
3307.1,0.0154
3308.1,0.0153
3309.1,0.0155
3310.1,0.0154
3311.1,0.0156
3312.1,0.0156
3313.1,0.0156
3314.1,0.0156
3315.1,0.0155
3316.1,0.0154
3317.1,0.0154
3318.1,0.0153
3319.1,0.0153
3320.1,0.0154
3321.1,0.0155
3322.1,0.0156
3323.1,0.0155
3324.1,0.0156
3325.1,0.0154
3326.1,0.0156
3327.1,0.0155
3328.1,0.0155
3329.1,0.0155
3330.1,0.0155
3331.1,0.0157
3332.1,0.0155
3333.1,0.0156
3334.1,0.0156
3335.1,0.0157
3336.1,0.0156
3337.1,0.0157
3338.1,0.0155
3339.1,0.0156
3340.1,0.0156
3341.1,0.0157
3342.1,0.0157
3343.1,0.0157
3344.1,0.0156
3345.1,0.0157
3346.1,0.0158
3347.1,0.0158
3348.1,0.0159
3349.1,0.0157
3350.1,0.0157
3351.1,0.0157
3352.1,0.0157
3353.1,0.0156
3354.1,0.0159
3355.1,0.0157
3356.1,0.016
3357.1,0.0159
3358.1,0.016
3359.1,0.016
3360.1,0.0158
3361.1,0.0159
3362.1,0.0158
3363.1,0.0158
3364.1,0.0159
3365.1,0.0159
3366.1,0.016
3367.1,0.016
3368.1,0.0158
3369.1,0.0161
3370.1,0.0163
3371.1,0.0162
3372.1,0.016
3373.1,0.0159
3374.1,0.0161
3375.1,0.0161
3376.1,0.0162
3377.1,0.016
3378.1,0.0161
3379.1,0.0161
3380.1,0.0162
3381.1,0.0162
3382.1,0.0161
3383.1,0.0161
3384.1,0.0162
3385.1,0.016
3386.1,0.0162
3387.1,0.0162
3388.1,0.0162
3389.1,0.0161
3390.1,0.0162
3391.1,0.0162
3392.1,0.0163
3393.1,0.0163
3394.1,0.0162
3395.1,0.0163
3396.1,0.0163
3397.1,0.0163
3398.1,0.0162
3399.1,0.0161
3400.1,0.0164
3401.1,0.0162
3402.1,0.0162
3403.1,0.0165
3404.1,0.0163
3405.1,0.0163
3406.1,0.0164
3407.1,0.0163
3408.1,0.0164
3409.1,0.0164
3410.1,0.0163
3411.1,0.0164
3412.1,0.0163
3413.1,0.0165
3414.1,0.0163
3415.1,0.0164
3416.1,0.0163
3417.1,0.0163
3418.1,0.0163
3419.1,0.0162
3420.1,0.0161
3421.1,0.0163
3422.1,0.0161
3423.1,0.0164
3424.1,0.0163
3425.1,0.0162
3426.1,0.0162
3427.1,0.0164
3428.1,0.0163
3429.1,0.0162
3430.1,0.0164
3431.1,0.0162
3432.1,0.0163
3433.1,0.0162
3434.1,0.0162
3435.1,0.0164
3436.1,0.0163
3437.1,0.0162
3438.1,0.0163
3439.1,0.0164
3440.1,0.0162
3441.1,0.0162
3442.1,0.0162
3443.1,0.0162
3444.1,0.0163
3445.1,0.0163
3446.1,0.0161
3447.1,0.0165
3448.1,0.0163
3449.1,0.0165
3450.1,0.0166
3451.1,0.0166
3452.1,0.0167
3453.1,0.0168
3454.1,0.0165
3455.1,0.0165
3456.1,0.0165
3457.1,0.0164
3458.1,0.0165
3459.1,0.0165
3460.1,0.0166
3461.1,0.0166
3462.1,0.0165
3463.1,0.0166
3464.1,0.0164
3465.1,0.0167
3466.1,0.0165
3467.1,0.0165
3468.1,0.0164
3469.1,0.0164
3470.1,0.0166
3471.1,0.0165
3472.1,0.0166
3473.1,0.0165
3474.1,0.0164
3475.1,0.0166
3476.1,0.0163
3477.1,0.0164
3478.1,0.0166
3479.1,0.0166
3480.1,0.0165
3481.1,0.0166
3482.1,0.0165
3483.1,0.0164
3484.1,0.0166
3485.1,0.0167
3486.1,0.0167
3487.1,0.0167
3488.1,0.0166
3489.1,0.0164
3490.1,0.0165
3491.1,0.0166
3492.1,0.0166
3493.1,0.0166
3494.1,0.0165
3495.1,0.0166
3496.1,0.0167
3497.1,0.0167
3498.1,0.0166
3499.1,0.0167
3500.1,0.0167
3501.1,0.0168
3502.1,0.0165
3503.1,0.0167
3504.1,0.0166
3505.1,0.0165
3506.1,0.0168
3507.1,0.0165
3508.1,0.0166
3509.1,0.0166
3510.1,0.0166
3511.1,0.0166
3512.1,0.0167
3513.1,0.0166
3514.1,0.0167
3515.1,0.0168
3516.1,0.0167
3517.1,0.0167
3518.1,0.0166
3519.1,0.0167
3520.1,0.0168
3521.1,0.0167
3522.1,0.0168
3523.1,0.0168
3524.1,0.0167
3525.1,0.0168
3526.1,0.0167
3527.1,0.0167
3528.1,0.0167
3529.1,0.0168
3530.1,0.0168
3531.1,0.0168
3532.1,0.0167
3533.1,0.0167
3534.1,0.0168
3535.1,0.0169
3536.1,0.0168
3537.1,0.0168
3538.1,0.0167
3539.1,0.0167
3540.1,0.0168
3541.1,0.0168
3542.1,0.0168
3543.1,0.0166
3544.1,0.0167
3545.1,0.0168
3546.1,0.0169
3547.1,0.0169
3548.1,0.0166
3549.1,0.0169
3550.1,0.0168
3551.1,0.0168
3552.1,0.0168
3553.1,0.0169
3554.1,0.017
3555.1,0.0169
3556.1,0.0169
3557.1,0.0168
3558.1,0.0168
3559.1,0.0168
3560.1,0.0169
3561.1,0.0168
3562.1,0.017
3563.1,0.017
3564.1,0.0169
3565.1,0.0169
3566.1,0.0169
3567.1,0.017
3568.1,0.0169
3569.1,0.0168
3570.1,0.017
3571.1,0.0168
3572.1,0.0169
3573.1,0.0171
3574.1,0.0168
3575.1,0.0169
3576.1,0.0169
3577.1,0.0169
3578.1,0.0169
3579.1,0.0169
3580.1,0.017
3581.1,0.0171
3582.1,0.0168
3583.1,0.0169
3584.1,0.0169
3585.1,0.017
3586.1,0.017
3587.1,0.0168
3588.1,0.017
3589.1,0.017
3590.1,0.0169
3591.1,0.017
3592.1,0.0168
3593.1,0.0169
3594.1,0.0169
3595.1,0.017
3596.1,0.0168
3597.1,0.017
3598.1,0.017
3599.1,0.0169
3600.1,0.017
3601.1,0.017
3602.1,0.0169
3603.1,0.0172
3604.1,0.0168
3605.1,0.0171
3606.1,0.0169
3607.1,0.0169
3608.1,0.0168
3609.1,0.017
3610.1,0.0172
3611.1,0.017
3612.1,0.0171
3613.1,0.017
3614.1,0.0171
3615.1,0.017
3616.1,0.0168
3617.1,0.0171
3618.1,0.0171
3619.1,0.0171
3620.1,0.017
3621.1,0.0171
3622.1,0.017
3623.1,0.0169
3624.1,0.017
3625.1,0.0171
3626.1,0.017
3627.1,0.0171
3628.1,0.0171
3629.1,0.0171
3630.1,0.0171
3631.1,0.017
3632.1,0.017
3633.1,0.0171
3634.1,0.017
3635.1,0.017
3636.1,0.017
3637.1,0.0171
3638.1,0.0171
3639.1,0.0171
3640.1,0.0171
3641.1,0.0171
3642.1,0.0171
3643.1,0.0172
3644.1,0.0171
3645.1,0.0172
3646.1,0.0171
3647.1,0.017
3648.1,0.0171
3649.1,0.017
3650.1,0.0171
3651.1,0.0171
3652.1,0.0172
3653.1,0.0172
3654.1,0.0171
3655.1,0.0173
3656.1,0.0171
3657.1,0.0169
3658.1,0.017
3659.1,0.0171
3660.1,0.0173
3661.1,0.0173
3662.1,0.017
3663.1,0.0171
3664.1,0.0171
3665.1,0.0173
3666.1,0.0172
3667.1,0.0171
3668.1,0.0171
3669.1,0.0173
3670.1,0.0172
3671.1,0.0172
3672.1,0.0174
3673.1,0.0171
3674.1,0.0172
3675.1,0.0174
3676.1,0.0172
3677.1,0.0173
3678.1,0.0173
3679.1,0.0172
3680.1,0.0172
3681.1,0.017
3682.1,0.0173
3683.1,0.0171
3684.1,0.0172
3685.1,0.0172
3686.1,0.0173
3687.1,0.0173
3688.1,0.0173
3689.1,0.0171
3690.1,0.0173
3691.1,0.0173
3692.1,0.0173
3693.1,0.0172
3694.1,0.0173
3695.1,0.0172
3696.1,0.0173
3697.1,0.0174
3698.1,0.0171
3699.1,0.0174
3700.1,0.0172
3701.1,0.0174
3702.1,0.0173
3703.1,0.0174
3704.1,0.0174
3705.1,0.0173
3706.1,0.0172
3707.1,0.0172
3708.1,0.0171
3709.1,0.0172
3710.1,0.0172
3711.1,0.0172
3712.1,0.0174
3713.1,0.0175
3714.1,0.0172
3715.1,0.0173
3716.1,0.0172
3717.1,0.0173
3718.1,0.0174
3719.1,0.0174
3720.1,0.0172
3721.1,0.0172
3722.1,0.0172
3723.1,0.0174
3724.1,0.0173
3725.1,0.0173
3726.1,0.0172
3727.1,0.0174
3728.1,0.0174
3729.1,0.0175
3730.1,0.0172
3731.1,0.0174
3732.1,0.0173
3733.1,0.0173
3734.1,0.0173
3735.1,0.0172
3736.1,0.0174
3737.1,0.0173
3738.1,0.0173
3739.1,0.0173
3740.1,0.0173
3741.1,0.0172
3742.1,0.0173
3743.1,0.0174
3744.1,0.0172
3745.1,0.0174
3746.1,0.0173
3747.1,0.0174
3748.1,0.0174
3749.1,0.0173
3750.1,0.0174
3751.1,0.0175
3752.1,0.0173
3753.1,0.0175
3754.1,0.0174
3755.1,0.0174
3756.1,0.0175
3757.1,0.0177
3758.1,0.0177
3759.1,0.0176
3760.1,0.0177
3761.1,0.0174
3762.1,0.0175
3763.1,0.0175
3764.1,0.0175
3765.1,0.0177
3766.1,0.0179
3767.1,0.0175
3768.1,0.0177
3769.1,0.0176
3770.1,0.0174
3771.1,0.0176
3772.1,0.0176
3773.1,0.0176
3774.1,0.0178
3775.1,0.0179
3776.1,0.018
3777.1,0.0179
3778.1,0.0178
3779.1,0.0176
3780.1,0.0177
3781.1,0.0174
3782.1,0.0176
3783.1,0.0175
3784.1,0.0173
3785.1,0.0174
3786.1,0.0174
3787.1,0.0175
3788.1,0.0177
3789.1,0.0174
3790.1,0.0176
3791.1,0.0174
3792.1,0.0175
3793.1,0.0174
3794.1,0.0176
3795.1,0.0175
3796.1,0.0175
3797.1,0.0174
3798.1,0.0176
3799.1,0.0175
3800.1,0.0173
3801.1,0.0173
3802.1,0.0174
3803.1,0.0175
3804.1,0.0174
3805.1,0.0175
3806.1,0.0175
3807.1,0.0173
3808.1,0.0173
3809.1,0.0174
3810.1,0.0175
3811.1,0.0174
3812.1,0.0174
3813.1,0.0174
3814.1,0.0175
3815.1,0.0174
3816.1,0.0174
3817.1,0.0175
3818.1,0.0173
3819.1,0.0173
3820.1,0.0175
3821.1,0.0173
3822.1,0.0174
3823.1,0.0174
3824.1,0.0176
3825.1,0.0178
3826.1,0.0177
3827.1,0.0176
3828.1,0.0177
3829.1,0.0175
3830.1,0.0173
3831.1,0.0175
3832.1,0.0175
3833.1,0.0175
3834.1,0.0174
3835.1,0.0172
3836.1,0.0175
3837.1,0.0175
3838.1,0.0174
3839.1,0.0175
3840.1,0.0176
3841.1,0.0178
3842.1,0.0179
3843.1,0.0179
3844.1,0.0177
3845.1,0.0176
3846.1,0.0176
3847.1,0.0174
3848.1,0.0173
3849.1,0.0173
3850.1,0.0173
3851.1,0.0174
3852.1,0.0174
3853.1,0.0172
3854.1,0.0174
3855.1,0.0173
3856.1,0.0172
3857.1,0.0173
3858.1,0.0174
3859.1,0.0175
3860.1,0.018
3861.1,0.0183
3862.1,0.0184
3863.1,0.0185
3864.1,0.0185
3865.1,0.0181
3866.1,0.0176
3867.1,0.0174
3868.1,0.0174
3869.1,0.0174
3870.1,0.0173
3871.1,0.0174
3872.1,0.0174
3873.1,0.0174
3874.1,0.0175
3875.1,0.0175
3876.1,0.0175
3877.1,0.0175
3878.1,0.0175
3879.1,0.0175
3880.1,0.0175
3881.1,0.0174
3882.1,0.0174
3883.1,0.0175
3884.1,0.0174
3885.1,0.0175
3886.1,0.0178
3887.1,0.0185
3888.1,0.0195
3889.1,0.0204
3890.1,0.0204
3891.1,0.0207
3892.1,0.0199
3893.1,0.0187
3894.1,0.0179
3895.1,0.0176
3896.1,0.0177
3897.1,0.0175
3898.1,0.0175
3899.1,0.0175
3900.1,0.0175
3901.1,0.0175
3902.1,0.0175
3903.1,0.0177
3904.1,0.0175
3905.1,0.0175
3906.1,0.0175
3907.1,0.0175
3908.1,0.0175
3909.1,0.0174
3910.1,0.0174
3911.1,0.0173
3912.1,0.0174
3913.1,0.0174
3914.1,0.0174
3915.1,0.0175
3916.1,0.0174
3917.1,0.0176
3918.1,0.0174
3919.1,0.0175
3920.1,0.0174
3921.1,0.0175
3922.1,0.0176
3923.1,0.0176
3924.1,0.0177
3925.1,0.0187
3926.1,0.0207
3927.1,0.0233
3928.1,0.0239
3929.1,0.0239
3930.1,0.0232
3931.1,0.0211
3932.1,0.0183
3933.1,0.0178
3934.1,0.0175
3935.1,0.0175
3936.1,0.0175
3937.1,0.0176
3938.1,0.0175
3939.1,0.0173
3940.1,0.0177
3941.1,0.0176
3942.1,0.0176
3943.1,0.0178
3944.1,0.0177
3945.1,0.0177
3946.1,0.0176
3947.1,0.0175
3948.1,0.0176
3949.1,0.0176
3950.1,0.0175
3951.1,0.0178
3952.1,0.018
3953.1,0.0179
3954.1,0.0181
3955.1,0.0181
3956.1,0.018
3957.1,0.0181
3958.1,0.018
3959.1,0.0179
3960.1,0.0178
3961.1,0.0178
3962.1,0.018
3963.1,0.018
3964.1,0.0183
3965.1,0.0184
3966.1,0.0182
3967.1,0.0181
3968.1,0.0177
3969.1,0.0176
3970.1,0.0174
3971.1,0.0177
3972.1,0.0176
3973.1,0.0175
3974.1,0.0176
3975.1,0.0174
3976.1,0.0176
3977.1,0.0176
3978.1,0.0176
3979.1,0.0179
3980.1,0.0219
3981.1,0.0289
3982.1,0.0342
3983.1,0.0359
3984.1,0.0363
3985.1,0.0343
3986.1,0.0286
3987.1,0.0198
3988.1,0.0179
3989.1,0.0177
3990.1,0.0176
3991.1,0.0174
3992.1,0.0175
3993.1,0.0174
3994.1,0.0175
3995.1,0.0175
3996.1,0.0176
3997.1,0.0175
3998.1,0.0176
3999.1,0.0173
4000.1,0.0174
4001.1,0.0175
4002.1,0.0175
4003.1,0.0174
4004.1,0.0176
4005.1,0.0175
4006.1,0.0174
4007.1,0.0173
4008.1,0.0173
4009.1,0.0175
4010.1,0.0176
4011.1,0.0177
4012.1,0.0174
4013.1,0.0175
4014.1,0.0175
4015.1,0.0175
4016.1,0.0174
4017.1,0.0175
4018.1,0.0175
4019.1,0.0177
4020.1,0.0176
4021.1,0.0176
4022.1,0.0176
4023.1,0.0177
4024.1,0.0175
4025.1,0.0175
4026.1,0.0176
4027.1,0.0177
4028.1,0.0177
4029.1,0.0176
4030.1,0.0175
4031.1,0.0178
4032.1,0.0176
4033.1,0.0175
4034.1,0.0176
4035.1,0.0175
4036.1,0.0177
4037.1,0.0177
4038.1,0.0176
4039.1,0.0177
4040.1,0.018
4041.1,0.0181
4042.1,0.0182
4043.1,0.0181
4044.1,0.018
4045.1,0.0179
4046.1,0.0179
4047.1,0.0178
4048.1,0.0179
4049.1,0.0175
4050.1,0.0177
4051.1,0.0177
4052.1,0.0178
4053.1,0.0178
4054.1,0.0179
4055.1,0.0182
4056.1,0.018
4057.1,0.0181
4058.1,0.0183
4059.1,0.0184
4060.1,0.0187
4061.1,0.0262
4062.1,0.0631
4063.1,0.0759
4064.1,0.08
4065.1,0.08
4066.1,0.0696
4067.1,0.0478
4068.1,0.0282
4069.1,0.0194
4070.1,0.0186
4071.1,0.0184
4072.1,0.0182
4073.1,0.0182
4074.1,0.0182
4075.1,0.0183
4076.1,0.0181
4077.1,0.0181
4078.1,0.0183
4079.1,0.0182
4080.1,0.0181
4081.1,0.0181
4082.1,0.0184
4083.1,0.0183
4084.1,0.0188
4085.1,0.0187
4086.1,0.0187
4087.1,0.0183
4088.1,0.0183
4089.1,0.0182
4090.1,0.0182
4091.1,0.0181
4092.1,0.0182
4093.1,0.0182
4094.1,0.0181
4095.1,0.0181
4096.1,0.0181
4097.1,0.0183
4098.1,0.0183
4099.1,0.0183
4100.1,0.0183
4101.1,0.0181
4102.1,0.0181
4103.1,0.018
4104.1,0.0179
4105.1,0.0178
4106.1,0.018
4107.1,0.018
4108.1,0.018
4109.1,0.0179
4110.1,0.018
4111.1,0.018
4112.1,0.0181
4113.1,0.0181
4114.1,0.0179
4115.1,0.018
4116.1,0.0179
4117.1,0.018
4118.1,0.0181
4119.1,0.0184
4120.1,0.0183
4121.1,0.0184
4122.1,0.0182
4123.1,0.0182
4124.1,0.018
4125.1,0.0181
4126.1,0.0181
4127.1,0.0179
4128.1,0.0178
4129.1,0.0179
4130.1,0.0179
4131.1,0.0178
4132.1,0.018
4133.1,0.0179
4134.1,0.018
4135.1,0.018
4136.1,0.018
4137.1,0.0179
4138.1,0.0182
4139.1,0.0182
4140.1,0.0183
4141.1,0.0182
4142.1,0.0183
4143.1,0.0181
4144.1,0.0182
4145.1,0.0182
4146.1,0.0183
4147.1,0.0184
4148.1,0.0184
4149.1,0.0185
4150.1,0.0182
4151.1,0.0182
4152.1,0.0184
4153.1,0.0189
4154.1,0.0192
4155.1,0.0196
4156.1,0.0196
4157.1,0.0198
4158.1,0.0197
4159.1,0.0198
4160.1,0.02
4161.1,0.0201
4162.1,0.02
4163.1,0.0197
4164.1,0.0196
4165.1,0.0192
4166.1,0.019
4167.1,0.0185
4168.1,0.0184
4169.1,0.0187
4170.1,0.0187
4171.1,0.0185
4172.1,0.0187
4173.1,0.0188
4174.1,0.0185
4175.1,0.0186
4176.1,0.0185
4177.1,0.0189
4178.1,0.0186
4179.1,0.019
4180.1,0.0188
4181.1,0.0187
4182.1,0.0186
4183.1,0.0184
4184.1,0.0185
4185.1,0.0185
4186.1,0.0191
4187.1,0.0192
4188.1,0.0196
4189.1,0.0208
4190.1,0.0227
4191.1,0.0763
4192.1,0.1703
4193.1,0.2396
4194.1,0.2845
4195.1,0.2865
4196.1,0.2824
4197.1,0.1286
4198.1,0.0569
4199.1,0.0294
4200.1,0.0202
4201.1,0.0195
4202.1,0.019
4203.1,0.0188
4204.1,0.0187
4205.1,0.0187
4206.1,0.0184
4207.1,0.0185
4208.1,0.0184
4209.1,0.0183
4210.1,0.0181
4211.1,0.0181
4212.1,0.0183
4213.1,0.0182
4214.1,0.0181
4215.1,0.0181
4216.1,0.0182
4217.1,0.0179
4218.1,0.018
4219.1,0.0181
4220.1,0.018
4221.1,0.018
4222.1,0.0181
4223.1,0.0183
4224.1,0.0183
4225.1,0.0183
4226.1,0.0184
4227.1,0.0183
4228.1,0.0182
4229.1,0.0181
4230.1,0.0182
4231.1,0.018
4232.1,0.018
4233.1,0.018
4234.1,0.0181
4235.1,0.0181
4236.1,0.0178
4237.1,0.0182
4238.1,0.0182
4239.1,0.0181
4240.1,0.018
4241.1,0.018
4242.1,0.0181
4243.1,0.0179
4244.1,0.0178
4245.1,0.018
4246.1,0.018
4247.1,0.0181
4248.1,0.0184
4249.1,0.0185
4250.1,0.0184
4251.1,0.0185
4252.1,0.0186
4253.1,0.0183
4254.1,0.0185
4255.1,0.0186
4256.1,0.0187
4257.1,0.0186
4258.1,0.0186
4259.1,0.0185
4260.1,0.0183
4261.1,0.018
4262.1,0.0184
4263.1,0.0184
4264.1,0.0188
4265.1,0.019
4266.1,0.019
4267.1,0.0193
4268.1,0.0191
4269.1,0.0199
4270.1,0.0202
4271.1,0.0204
4272.1,0.0205
4273.1,0.0203
4274.1,0.02
4275.1,0.0194
4276.1,0.0192
4277.1,0.0186
4278.1,0.0184
4279.1,0.0183
4280.1,0.018
4281.1,0.018
4282.1,0.018
4283.1,0.0179
4284.1,0.0182
4285.1,0.018
4286.1,0.0179
4287.1,0.018
4288.1,0.0182
4289.1,0.0184
4290.1,0.0185
4291.1,0.0187
4292.1,0.0186
4293.1,0.0186
4294.1,0.0185
4295.1,0.0185
4296.1,0.0185
4297.1,0.0188
4298.1,0.0189
4299.1,0.0193
4300.1,0.0193
4301.1,0.0192
4302.1,0.019
4303.1,0.0189
4304.1,0.0191
4305.1,0.0195
4306.1,0.0195
4307.1,0.0194
4308.1,0.0191
4309.1,0.0188
4310.1,0.0184
4311.1,0.0181
4312.1,0.0181
4313.1,0.018
4314.1,0.018
4315.1,0.0181
4316.1,0.0183
4317.1,0.0184
4318.1,0.0185
4319.1,0.0182
4320.1,0.0182
4321.1,0.018
4322.1,0.018
4323.1,0.0178
4324.1,0.018
4325.1,0.0177
4326.1,0.0178
4327.1,0.0179
4328.1,0.0179
4329.1,0.0179
4330.1,0.0182
4331.1,0.0179
4332.1,0.0178
4333.1,0.0179
4334.1,0.0178
4335.1,0.0176
4336.1,0.018
4337.1,0.0179
4338.1,0.0179
4339.1,0.0179
4340.1,0.0177
4341.1,0.0179
4342.1,0.0177
4343.1,0.0178
4344.1,0.0178
4345.1,0.0179
4346.1,0.018
4347.1,0.0179
4348.1,0.0178
4349.1,0.018
4350.1,0.0179
4351.1,0.0179
4352.1,0.0178
4353.1,0.0179
4354.1,0.0177
4355.1,0.0179
4356.1,0.0179
4357.1,0.0177
4358.1,0.0179
4359.1,0.018
4360.1,0.0179
4361.1,0.0181
4362.1,0.0179
4363.1,0.0177
4364.1,0.0177
4365.1,0.0179
4366.1,0.0179
4367.1,0.0179
4368.1,0.0178
4369.1,0.0177
4370.1,0.0178
4371.1,0.0179
4372.1,0.0179
4373.1,0.0179
4374.1,0.0178
4375.1,0.0178
4376.1,0.018
4377.1,0.0178
4378.1,0.018
4379.1,0.0179
4380.1,0.0178
4381.1,0.018
4382.1,0.0178
4383.1,0.0179
4384.1,0.0182
4385.1,0.0181
4386.1,0.0182
4387.1,0.0179
4388.1,0.018
4389.1,0.0182
4390.1,0.018
4391.1,0.018
4392.1,0.0179
4393.1,0.0179
4394.1,0.0181
4395.1,0.018
4396.1,0.0183
4397.1,0.0183
4398.1,0.0183
4399.1,0.0184
4400.1,0.0183
4401.1,0.0183
4402.1,0.0182
4403.1,0.0182
4404.1,0.0181
4405.1,0.0182
4406.1,0.0183
4407.1,0.0183
4408.1,0.0182
4409.1,0.0182
4410.1,0.0182
4411.1,0.0183
4412.1,0.0185
4413.1,0.0183
4414.1,0.0183
4415.1,0.0185
4416.1,0.0186
4417.1,0.0187
4418.1,0.0188
4419.1,0.019
4420.1,0.0191
4421.1,0.0192
4422.1,0.0199
4423.1,0.0199
4424.1,0.0204
4425.1,0.0208
4426.1,0.0217
4427.1,0.0234
4428.1,0.0256
4429.1,0.0295
4430.1,0.0747
4431.1,0.4533
4432.1,1.007
4433.1,1.4316
4434.1,1.4965
4435.1,1.4818
4436.1,0.9939
4437.1,0.4365
4438.1,0.1378
4439.1,0.0356
4440.1,0.0294
4441.1,0.024
4442.1,0.0218
4443.1,0.0211
4444.1,0.0203
4445.1,0.0199
4446.1,0.0196
4447.1,0.0192
4448.1,0.0191
4449.1,0.019
4450.1,0.0189
4451.1,0.0186
4452.1,0.0184
4453.1,0.0185
4454.1,0.0185
4455.1,0.0186
4456.1,0.0185
4457.1,0.0185
4458.1,0.0187
4459.1,0.0188
4460.1,0.0191
4461.1,0.0193
4462.1,0.0193
4463.1,0.0191
4464.1,0.0187
4465.1,0.0184
4466.1,0.0182
4467.1,0.0182
4468.1,0.0182
4469.1,0.0183
4470.1,0.0184
4471.1,0.0187
4472.1,0.0187
4473.1,0.0189
4474.1,0.0187
4475.1,0.0183
4476.1,0.0183
4477.1,0.0182
4478.1,0.0183
4479.1,0.0184
4480.1,0.0183
4481.1,0.0186
4482.1,0.0192
4483.1,0.0193
4484.1,0.0193
4485.1,0.0192
4486.1,0.0187
4487.1,0.0182
4488.1,0.0179
4489.1,0.0179
4490.1,0.018
4491.1,0.0183
4492.1,0.0185
4493.1,0.0184
4494.1,0.0185
4495.1,0.0185
4496.1,0.0182
4497.1,0.0179
4498.1,0.018
4499.1,0.018
4500.1,0.018
4501.1,0.0181
4502.1,0.0186
4503.1,0.0201
4504.1,0.021
4505.1,0.022
4506.1,0.0227
4507.1,0.0228
4508.1,0.0226
4509.1,0.022
4510.1,0.0217
4511.1,0.0212
4512.1,0.0206
4513.1,0.0204
4514.1,0.0199
4515.1,0.0196
4516.1,0.0196
4517.1,0.0198
4518.1,0.0197
4519.1,0.0193
4520.1,0.0193
4521.1,0.0192
4522.1,0.0188
4523.1,0.0185
4524.1,0.0184
4525.1,0.0184
4526.1,0.0185
4527.1,0.0185
4528.1,0.0187
4529.1,0.0187
4530.1,0.0185
4531.1,0.0184
4532.1,0.0181
4533.1,0.0183
4534.1,0.0181
4535.1,0.0186
4536.1,0.0188
4537.1,0.019
4538.1,0.0203
4539.1,0.0208
4540.1,0.0211
4541.1,0.0212
4542.1,0.0212
4543.1,0.0203
4544.1,0.0199
4545.1,0.0195
4546.1,0.0191
4547.1,0.0193
4548.1,0.0194
4549.1,0.0193
4550.1,0.0194
4551.1,0.0202
4552.1,0.0211
4553.1,0.0215
4554.1,0.0215
4555.1,0.0212
4556.1,0.0208
4557.1,0.0199
4558.1,0.0193
4559.1,0.0192
4560.1,0.0192
4561.1,0.0189
4562.1,0.0188
4563.1,0.0185
4564.1,0.0183
4565.1,0.0183
4566.1,0.0188
4567.1,0.019
4568.1,0.0189
4569.1,0.0191
4570.1,0.0187
4571.1,0.0186
4572.1,0.0183
4573.1,0.0182
4574.1,0.0184
4575.1,0.0183
4576.1,0.0185
4577.1,0.0187
4578.1,0.0193
4579.1,0.0199
4580.1,0.0204
4581.1,0.0212
4582.1,0.0217
4583.1,0.0217
4584.1,0.021
4585.1,0.0205
4586.1,0.0201
4587.1,0.0194
4588.1,0.019
4589.1,0.0194
4590.1,0.02
4591.1,0.0209
4592.1,0.021
4593.1,0.0212
4594.1,0.021
4595.1,0.0199
4596.1,0.0192
4597.1,0.0191
4598.1,0.0188
4599.1,0.0188
4600.1,0.0183
4601.1,0.0183
4602.1,0.018
4603.1,0.0179
4604.1,0.0182
4605.1,0.0184
4606.1,0.0189
4607.1,0.0192
4608.1,0.0195
4609.1,0.0194
4610.1,0.0192
4611.1,0.0189
4612.1,0.0187
4613.1,0.0185
4614.1,0.0184
4615.1,0.0186
4616.1,0.0189
4617.1,0.019
4618.1,0.0189
4619.1,0.019
4620.1,0.0189
4621.1,0.0187
4622.1,0.0182
4623.1,0.0185
4624.1,0.0181
4625.1,0.0183
4626.1,0.0188
4627.1,0.0192
4628.1,0.0195
4629.1,0.0194
4630.1,0.0195
4631.1,0.0191
4632.1,0.0188
4633.1,0.0186
4634.1,0.0188
4635.1,0.0184
4636.1,0.0184
4637.1,0.018
4638.1,0.0181
4639.1,0.018
4640.1,0.0181
4641.1,0.0179
4642.1,0.0179
4643.1,0.0184
4644.1,0.0188
4645.1,0.0192
4646.1,0.0195
4647.1,0.0197
4648.1,0.0193
4649.1,0.0188
4650.1,0.0188
4651.1,0.0189
4652.1,0.019
4653.1,0.0188
4654.1,0.0188
4655.1,0.0188
4656.1,0.0187
4657.1,0.0186
4658.1,0.0187
4659.1,0.0185
4660.1,0.0189
4661.1,0.0192
4662.1,0.0195
4663.1,0.0193
4664.1,0.0197
4665.1,0.0201
4666.1,0.0203
4667.1,0.0205
4668.1,0.0208
4669.1,0.021
4670.1,0.0203
4671.1,0.0201
4672.1,0.0208
4673.1,0.0215
4674.1,0.0219
4675.1,0.0221
4676.1,0.0223
4677.1,0.021
4678.1,0.02
4679.1,0.0195
4680.1,0.0185
4681.1,0.0182
4682.1,0.0182
4683.1,0.0179
4684.1,0.018
4685.1,0.0181
4686.1,0.018
4687.1,0.0179
4688.1,0.018
4689.1,0.0181
4690.1,0.018
4691.1,0.0183
4692.1,0.0181
4693.1,0.0184
4694.1,0.0183
4695.1,0.018
4696.1,0.0178
4697.1,0.0178
4698.1,0.0179
4699.1,0.0181
4700.1,0.0182
4701.1,0.0182
4702.1,0.0184
4703.1,0.0183
4704.1,0.0179
4705.1,0.0179
4706.1,0.0178
4707.1,0.0177
4708.1,0.0179
4709.1,0.0182
4710.1,0.0186
4711.1,0.0189
4712.1,0.0192
4713.1,0.0191
4714.1,0.0188
4715.1,0.0183
4716.1,0.0179
4717.1,0.0184
4718.1,0.0183
4719.1,0.0191
4720.1,0.0198
4721.1,0.0201
4722.1,0.0199
4723.1,0.0214
4724.1,0.0219
4725.1,0.0226
4726.1,0.0247
4727.1,0.025
4728.1,0.0253
4729.1,0.023
4730.1,0.0211
4731.1,0.0193
4732.1,0.0181
4733.1,0.0177
4734.1,0.0178
4735.1,0.0174
4736.1,0.0177
4737.1,0.0177
4738.1,0.0177
4739.1,0.0177
4740.1,0.0176
4741.1,0.0176
4742.1,0.0177
4743.1,0.0177
4744.1,0.018
4745.1,0.0182
4746.1,0.0181
4747.1,0.0182
4748.1,0.0181
4749.1,0.0177
4750.1,0.0176
4751.1,0.0174
4752.1,0.0176
4753.1,0.0178
4754.1,0.0182
4755.1,0.0183
4756.1,0.018
4757.1,0.0179
4758.1,0.0177
4759.1,0.0175
4760.1,0.0175
4761.1,0.0175
4762.1,0.0178
4763.1,0.018
4764.1,0.0179
4765.1,0.0181
4766.1,0.0179
4767.1,0.0177
4768.1,0.0172
4769.1,0.0175
4770.1,0.0173
4771.1,0.0173
4772.1,0.0175
4773.1,0.0177
4774.1,0.018
4775.1,0.0185
4776.1,0.0188
4777.1,0.0189
4778.1,0.0186
4779.1,0.0182
4780.1,0.018
4781.1,0.0177
4782.1,0.0177
4783.1,0.0176
4784.1,0.0175
4785.1,0.0174
4786.1,0.0172
4787.1,0.0171
4788.1,0.0169
4789.1,0.0169
4790.1,0.0168
4791.1,0.017
4792.1,0.0168
4793.1,0.0169
4794.1,0.017
4795.1,0.0171
4796.1,0.017
4797.1,0.017
4798.1,0.0171
4799.1,0.0171
4800.1,0.0173
4801.1,0.0173
4802.1,0.0174
4803.1,0.0174
4804.1,0.0176
4805.1,0.0173
4806.1,0.0171
4807.1,0.0172
4808.1,0.0172
4809.1,0.0173
4810.1,0.0176
4811.1,0.0177
4812.1,0.0179
4813.1,0.0182
4814.1,0.0183
4815.1,0.018
4816.1,0.018
4817.1,0.0178
4818.1,0.0177
4819.1,0.0172
4820.1,0.0172
4821.1,0.0173
4822.1,0.0173
4823.1,0.0173
4824.1,0.0177
4825.1,0.0178
4826.1,0.018
4827.1,0.018
4828.1,0.0179
4829.1,0.0177
4830.1,0.0175
4831.1,0.0172
4832.1,0.0172
4833.1,0.0171
4834.1,0.0174
4835.1,0.0174
4836.1,0.0173
4837.1,0.0175
4838.1,0.0172
4839.1,0.0168
4840.1,0.0169
4841.1,0.0169
4842.1,0.0169
4843.1,0.017
4844.1,0.0168
4845.1,0.0169
4846.1,0.0169
4847.1,0.0169
4848.1,0.0171
4849.1,0.0169
4850.1,0.0171
4851.1,0.0173
4852.1,0.0171
4853.1,0.0171
4854.1,0.017
4855.1,0.017
4856.1,0.0171
4857.1,0.0171
4858.1,0.0172
4859.1,0.0173
4860.1,0.0173
4861.1,0.0171
4862.1,0.0173
4863.1,0.0171
4864.1,0.0172
4865.1,0.0173
4866.1,0.017
4867.1,0.0172
4868.1,0.0172
4869.1,0.0173
4870.1,0.0173
4871.1,0.0173
4872.1,0.0176
4873.1,0.0176
4874.1,0.0177
4875.1,0.0177
4876.1,0.0177
4877.1,0.0177
4878.1,0.0177
4879.1,0.0177
4880.1,0.0176
4881.1,0.0178
4882.1,0.0178
4883.1,0.0174
4884.1,0.0176
4885.1,0.0176
4886.1,0.0175
4887.1,0.0177
4888.1,0.0179
4889.1,0.0181
4890.1,0.0181
4891.1,0.0183
4892.1,0.0182
4893.1,0.0179
4894.1,0.0177
4895.1,0.0175
4896.1,0.0174
4897.1,0.0174
4898.1,0.0174
4899.1,0.0176
4900.1,0.0178
4901.1,0.0176
4902.1,0.0177
4903.1,0.0178
4904.1,0.0179
4905.1,0.018
4906.1,0.018
4907.1,0.0179
4908.1,0.018
4909.1,0.0179
4910.1,0.0177
4911.1,0.0179
4912.1,0.0178
4913.1,0.0179
4914.1,0.0179
4915.1,0.0179
4916.1,0.0183
4917.1,0.0181
4918.1,0.0184
4919.1,0.0184
4920.1,0.0183
4921.1,0.0183
4922.1,0.0183
4923.1,0.0187
4924.1,0.0189
4925.1,0.0191
4926.1,0.0195
4927.1,0.0196
4928.1,0.0197
4929.1,0.0198
4930.1,0.02
4931.1,0.0203
4932.1,0.0204
4933.1,0.0209
4934.1,0.0212
4935.1,0.0214
4936.1,0.0217
4937.1,0.0224
4938.1,0.0228
4939.1,0.0231
4940.1,0.0235
4941.1,0.0243
4942.1,0.026
4943.1,0.027
4944.1,0.0283
4945.1,0.0306
4946.1,0.0326
4947.1,0.0358
4948.1,0.0435
4949.1,0.0512
4950.1,0.0643
4951.1,0.1039
4952.1,0.1418
4953.1,1.3766
4954.1,6.9352
4955.1,8.8508
4956.1,9.6255
4957.1,9.503
4958.1,7.7729
4959.1,4.2999
4960.1,0.8386
4961.1,0.4574
4962.1,0.0765
4963.1,0.0573
4964.1,0.0478
4965.1,0.0393
4966.1,0.036
4967.1,0.0333
4968.1,0.0299
4969.1,0.0283
4970.1,0.0272
4971.1,0.025
4972.1,0.0239
4973.1,0.0228
4974.1,0.0219
4975.1,0.0213
4976.1,0.0208
4977.1,0.0205
4978.1,0.0204
4979.1,0.0205
4980.1,0.02
4981.1,0.0198
4982.1,0.0196
4983.1,0.0193
4984.1,0.019
4985.1,0.019
4986.1,0.0188
4987.1,0.0187
4988.1,0.0186
4989.1,0.0187
4990.1,0.0184
4991.1,0.0186
4992.1,0.0183
4993.1,0.0182
4994.1,0.0182
4995.1,0.018
4996.1,0.0181
4997.1,0.0178
4998.1,0.0179
4999.1,0.0178
5000.1,0.0178
5001.1,0.018
5002.1,0.018
5003.1,0.018
5004.1,0.018
5005.1,0.0178
5006.1,0.0175
5007.1,0.0175
5008.1,0.0173
5009.1,0.0172
5010.1,0.0171
5011.1,0.0175
5012.1,0.0174
5013.1,0.0176
5014.1,0.0177
5015.1,0.0177
5016.1,0.0176
5017.1,0.0175
5018.1,0.0174
5019.1,0.0175
5020.1,0.0182
5021.1,0.0198
5022.1,0.0201
5023.1,0.0202
5024.1,0.0203
5025.1,0.0202
5026.1,0.0198
5027.1,0.0204
5028.1,0.0206
5029.1,0.0206
5030.1,0.0199
5031.1,0.0191
5032.1,0.0179
5033.1,0.0175
5034.1,0.0174
5035.1,0.0175
5036.1,0.0174
5037.1,0.0172
5038.1,0.0169
5039.1,0.0168
5040.1,0.0169
5041.1,0.0168
5042.1,0.0166
5043.1,0.0168
5044.1,0.017
5045.1,0.0169
5046.1,0.0169
5047.1,0.0172
5048.1,0.0174
5049.1,0.0174
5050.1,0.0175
5051.1,0.0176
5052.1,0.0174
5053.1,0.0172
5054.1,0.0169
5055.1,0.0167
5056.1,0.0167
5057.1,0.0168
5058.1,0.017
5059.1,0.0173
5060.1,0.0175
5061.1,0.0174
5062.1,0.0175
5063.1,0.0174
5064.1,0.0175
5065.1,0.0175
5066.1,0.0177
5067.1,0.0178
5068.1,0.0179
5069.1,0.0178
5070.1,0.0177
5071.1,0.0178
5072.1,0.0178
5073.1,0.0178
5074.1,0.0176
5075.1,0.0175
5076.1,0.0175
5077.1,0.0174
5078.1,0.0173
5079.1,0.0174
5080.1,0.0171
5081.1,0.0171
5082.1,0.017
5083.1,0.0172
5084.1,0.0171
5085.1,0.017
5086.1,0.0169
5087.1,0.0169
5088.1,0.0171
5089.1,0.0173
5090.1,0.0172
5091.1,0.0172
5092.1,0.0171
5093.1,0.0171
5094.1,0.017
5095.1,0.0171
5096.1,0.0173
5097.1,0.017
5098.1,0.0172
5099.1,0.0173
5100.1,0.0171
5101.1,0.0171
5102.1,0.0175
5103.1,0.0177
5104.1,0.0178
5105.1,0.0178
5106.1,0.0183
5107.1,0.0185
5108.1,0.0184
5109.1,0.018
5110.1,0.0176
5111.1,0.0173
5112.1,0.0169
5113.1,0.0166
5114.1,0.0167
5115.1,0.0164
5116.1,0.0164
5117.1,0.0163
5118.1,0.0164
5119.1,0.0164
5120.1,0.0164
5121.1,0.0165
5122.1,0.0164
5123.1,0.0167
5124.1,0.0165
5125.1,0.0163
5126.1,0.0163
5127.1,0.0162
5128.1,0.0162
5129.1,0.0162
5130.1,0.0162
5131.1,0.0164
5132.1,0.0164
5133.1,0.0164
5134.1,0.0164
5135.1,0.0162
5136.1,0.0161
5137.1,0.0162
5138.1,0.016
5139.1,0.016
5140.1,0.0161
5141.1,0.0162
5142.1,0.0162
5143.1,0.0162
5144.1,0.0161
5145.1,0.0162
5146.1,0.0163
5147.1,0.0164
5148.1,0.0163
5149.1,0.0164
5150.1,0.0162
5151.1,0.0161
5152.1,0.0161
5153.1,0.0161
5154.1,0.0163
5155.1,0.0164
5156.1,0.0167
5157.1,0.0165
5158.1,0.0167
5159.1,0.0167
5160.1,0.0166
5161.1,0.0166
5162.1,0.0167
5163.1,0.0168
5164.1,0.0166
5165.1,0.0165
5166.1,0.0166
5167.1,0.0166
5168.1,0.0167
5169.1,0.0167
5170.1,0.0167
5171.1,0.0169
5172.1,0.017
5173.1,0.0172
5174.1,0.0172
5175.1,0.0174
5176.1,0.0173
5177.1,0.0172
5178.1,0.017
5179.1,0.0168
5180.1,0.0166
5181.1,0.0165
5182.1,0.0162
5183.1,0.0164
5184.1,0.0165
5185.1,0.0161
5186.1,0.0164
5187.1,0.0163
5188.1,0.0164
5189.1,0.0163
5190.1,0.0162
5191.1,0.0163
5192.1,0.0164
5193.1,0.0162
5194.1,0.0163
5195.1,0.0163
5196.1,0.0164
5197.1,0.0164
5198.1,0.0165
5199.1,0.0164
5200.1,0.0164
5201.1,0.0163
5202.1,0.0163
5203.1,0.0163
5204.1,0.0163
5205.1,0.0165
5206.1,0.0165
5207.1,0.0165
5208.1,0.0165
5209.1,0.0165
5210.1,0.0163
5211.1,0.0162
5212.1,0.0161
5213.1,0.0161
5214.1,0.0161
5215.1,0.016
5216.1,0.0158
5217.1,0.016
5218.1,0.0159
5219.1,0.0161
5220.1,0.016
5221.1,0.0161
5222.1,0.0159
5223.1,0.016
5224.1,0.0159
5225.1,0.0159
5226.1,0.0159
5227.1,0.0159
5228.1,0.0159
5229.1,0.0159
5230.1,0.0159
5231.1,0.0159
5232.1,0.0156
5233.1,0.0158
5234.1,0.016
5235.1,0.0158
5236.1,0.016
5237.1,0.016
5238.1,0.016
5239.1,0.0159
5240.1,0.0157
5241.1,0.0158
5242.1,0.0158
5243.1,0.0157
5244.1,0.0156
5245.1,0.0157
5246.1,0.0154
5247.1,0.0154
5248.1,0.0155
5249.1,0.0156
5250.1,0.0156
5251.1,0.0156
5252.1,0.0154
5253.1,0.0156
5254.1,0.0153
5255.1,0.0154
5256.1,0.0152
5257.1,0.0152
5258.1,0.0151
5259.1,0.0151
5260.1,0.0151
5261.1,0.0152
5262.1,0.0152
5263.1,0.0154
5264.1,0.0153
5265.1,0.0153
5266.1,0.0153
5267.1,0.0154
5268.1,0.0154
5269.1,0.0154
5270.1,0.0155
5271.1,0.0154
5272.1,0.0152
5273.1,0.0151
5274.1,0.0152
5275.1,0.0152
5276.1,0.0155
5277.1,0.0151
5278.1,0.0152
5279.1,0.015
5280.1,0.015
5281.1,0.015
5282.1,0.0151
5283.1,0.0152
5284.1,0.0151
5285.1,0.0152
5286.1,0.015
5287.1,0.0152
5288.1,0.0151
5289.1,0.0152
5290.1,0.0154
5291.1,0.0156
5292.1,0.0156
5293.1,0.0157
5294.1,0.0156
5295.1,0.0153
5296.1,0.0152
5297.1,0.0151
5298.1,0.0151
5299.1,0.0151
5300.1,0.015
5301.1,0.015
5302.1,0.0149
5303.1,0.0149
5304.1,0.0149
5305.1,0.0149
5306.1,0.0149
5307.1,0.0148
5308.1,0.015
5309.1,0.0151
5310.1,0.0152
5311.1,0.015
5312.1,0.015
5313.1,0.0152
5314.1,0.0149
5315.1,0.015
5316.1,0.0152
5317.1,0.0153
5318.1,0.0151
5319.1,0.0151
5320.1,0.0151
5321.1,0.0151
5322.1,0.0153
5323.1,0.0152
5324.1,0.0153
5325.1,0.0153
5326.1,0.0153
5327.1,0.0152
5328.1,0.0149
5329.1,0.0149
5330.1,0.0147
5331.1,0.0147
5332.1,0.0148
5333.1,0.0149
5334.1,0.0149
5335.1,0.0149
5336.1,0.0148
5337.1,0.015
5338.1,0.0148
5339.1,0.015
5340.1,0.015
5341.1,0.0149
5342.1,0.0151
5343.1,0.015
5344.1,0.0148
5345.1,0.015
5346.1,0.015
5347.1,0.0149
5348.1,0.015
5349.1,0.015
5350.1,0.0152
5351.1,0.0153
5352.1,0.0154
5353.1,0.0153
5354.1,0.015
5355.1,0.015
5356.1,0.0153
5357.1,0.0153
5358.1,0.0156
5359.1,0.0156
5360.1,0.0154
5361.1,0.0153
5362.1,0.0152
5363.1,0.0153
5364.1,0.0152
5365.1,0.0154
5366.1,0.0153
5367.1,0.0153
5368.1,0.0153
5369.1,0.015
5370.1,0.015
5371.1,0.0149
5372.1,0.015
5373.1,0.015
5374.1,0.0148
5375.1,0.0149
5376.1,0.015
5377.1,0.0151
5378.1,0.0151
5379.1,0.015
5380.1,0.0149
5381.1,0.0147
5382.1,0.0149
5383.1,0.0149
5384.1,0.015
5385.1,0.015
5386.1,0.0149
5387.1,0.0149
5388.1,0.0147
5389.1,0.0147
5390.1,0.0146
5391.1,0.0147
5392.1,0.0149
5393.1,0.0148
5394.1,0.0153
5395.1,0.0154
5396.1,0.0154
5397.1,0.0153
5398.1,0.0153
5399.1,0.015
5400.1,0.0148
5401.1,0.0149
5402.1,0.0146
5403.1,0.0147
5404.1,0.0147
5405.1,0.0148
5406.1,0.0147
5407.1,0.0146
5408.1,0.0147
5409.1,0.0149
5410.1,0.015
5411.1,0.0149
5412.1,0.0151
5413.1,0.0151
5414.1,0.0149
5415.1,0.0147
5416.1,0.0148
5417.1,0.0148
5418.1,0.0148
5419.1,0.0147
5420.1,0.0149
5421.1,0.015
5422.1,0.0152
5423.1,0.0151
5424.1,0.0151
5425.1,0.015
5426.1,0.015
5427.1,0.0148
5428.1,0.0149
5429.1,0.0147
5430.1,0.0149
5431.1,0.0148
5432.1,0.0146
5433.1,0.0147
5434.1,0.015
5435.1,0.0148
5436.1,0.0149
5437.1,0.015
5438.1,0.0149
5439.1,0.0148
5440.1,0.0146
5441.1,0.0145
5442.1,0.0146
5443.1,0.0146
5444.1,0.0145
5445.1,0.0147
5446.1,0.0147
5447.1,0.015
5448.1,0.0148
5449.1,0.015
5450.1,0.0148
5451.1,0.0149
5452.1,0.0147
5453.1,0.0146
5454.1,0.0147
5455.1,0.0147
5456.1,0.0148
5457.1,0.0148
5458.1,0.0147
5459.1,0.0148
5460.1,0.0151
5461.1,0.0147
5462.1,0.0149
5463.1,0.0149
5464.1,0.0149
5465.1,0.0151
5466.1,0.0149
5467.1,0.0151
5468.1,0.0149
5469.1,0.0148
5470.1,0.0148
5471.1,0.0146
5472.1,0.0147
5473.1,0.0145
5474.1,0.0146
5475.1,0.0146
5476.1,0.0147
5477.1,0.0148
5478.1,0.015
5479.1,0.0154
5480.1,0.0152
5481.1,0.0152
5482.1,0.0151
5483.1,0.015
5484.1,0.0151
5485.1,0.0149
5486.1,0.0147
5487.1,0.0147
5488.1,0.0145
5489.1,0.0146
5490.1,0.0147
5491.1,0.0148
5492.1,0.015
5493.1,0.0151
5494.1,0.0149
5495.1,0.015
5496.1,0.015
5497.1,0.0149
5498.1,0.0148
5499.1,0.0147
5500.1,0.0147
5501.1,0.0149
5502.1,0.0147
5503.1,0.0145
5504.1,0.0147
5505.1,0.0146
5506.1,0.0144
5507.1,0.0145
5508.1,0.0146
5509.1,0.0147
5510.1,0.0151
5511.1,0.0153
5512.1,0.0155
5513.1,0.0158
5514.1,0.0155
5515.1,0.0152
5516.1,0.0152
5517.1,0.0152
5518.1,0.0151
5519.1,0.0152
5520.1,0.0152
5521.1,0.0152
5522.1,0.0149
5523.1,0.0149
5524.1,0.0148
5525.1,0.0149
5526.1,0.0149
5527.1,0.0152
5528.1,0.015
5529.1,0.0152
5530.1,0.0151
5531.1,0.0151
5532.1,0.0148
5533.1,0.0146
5534.1,0.0145
5535.1,0.0146
5536.1,0.0144
5537.1,0.0144
5538.1,0.0145
5539.1,0.0145
5540.1,0.0146
5541.1,0.0146
5542.1,0.0146
5543.1,0.0146
5544.1,0.0147
5545.1,0.0147
5546.1,0.0146
5547.1,0.0146
5548.1,0.0146
5549.1,0.0145
5550.1,0.0146
5551.1,0.0146
5552.1,0.0149
5553.1,0.0147
5554.1,0.0147
5555.1,0.0148
5556.1,0.0148
5557.1,0.0148
5558.1,0.0146
5559.1,0.0147
5560.1,0.0146
5561.1,0.0145
5562.1,0.0145
5563.1,0.0144
5564.1,0.0146
5565.1,0.0146
5566.1,0.0148
5567.1,0.0146
5568.1,0.0148
5569.1,0.0147
5570.1,0.0145
5571.1,0.0144
5572.1,0.0146
5573.1,0.0148
5574.1,0.0149
5575.1,0.0148
5576.1,0.0149
5577.1,0.0148
5578.1,0.0147
5579.1,0.0146
5580.1,0.0146
5581.1,0.0147
5582.1,0.0146
5583.1,0.0146
5584.1,0.0146
5585.1,0.0143
5586.1,0.0146
5587.1,0.0144
5588.1,0.0144
5589.1,0.0146
5590.1,0.0146
5591.1,0.0146
5592.1,0.0148
5593.1,0.0149
5594.1,0.0148
5595.1,0.0149
5596.1,0.0147
5597.1,0.0147
5598.1,0.0146
5599.1,0.0146
5600.1,0.015
5601.1,0.015
5602.1,0.0147
5603.1,0.0146
5604.1,0.0146
5605.1,0.0144
5606.1,0.0145
5607.1,0.0144
5608.1,0.0144
5609.1,0.0145
5610.1,0.0145
5611.1,0.0146
5612.1,0.0144
5613.1,0.0145
5614.1,0.0146
5615.1,0.0146
5616.1,0.0147
5617.1,0.0146
5618.1,0.0146
5619.1,0.0145
5620.1,0.0146
5621.1,0.0146
5622.1,0.0145
5623.1,0.0147
5624.1,0.0145
5625.1,0.0145
5626.1,0.0145
5627.1,0.0144
5628.1,0.0145
5629.1,0.0147
5630.1,0.015
5631.1,0.0152
5632.1,0.0152
5633.1,0.0151
5634.1,0.0149
5635.1,0.0147
5636.1,0.0147
5637.1,0.0149
5638.1,0.0147
5639.1,0.0147
5640.1,0.0147
5641.1,0.0147
5642.1,0.0146
5643.1,0.0146
5644.1,0.0145
5645.1,0.0146
5646.1,0.0147
5647.1,0.0148
5648.1,0.0146
5649.1,0.0147
5650.1,0.0146
5651.1,0.0143
5652.1,0.0146
5653.1,0.0146
5654.1,0.0145
5655.1,0.0145
5656.1,0.0146
5657.1,0.0146
5658.1,0.0148
5659.1,0.0145
5660.1,0.0144
5661.1,0.0144
5662.1,0.0144
5663.1,0.0143
5664.1,0.0144
5665.1,0.0145
5666.1,0.0146
5667.1,0.0146
5668.1,0.0147
5669.1,0.0144
5670.1,0.0145
5671.1,0.0145
5672.1,0.0144
5673.1,0.0146
5674.1,0.0146
5675.1,0.0145
5676.1,0.0143
5677.1,0.0144
5678.1,0.0144
5679.1,0.0144
5680.1,0.0143
5681.1,0.0143
5682.1,0.0143
5683.1,0.0143
5684.1,0.0143
5685.1,0.0144
5686.1,0.0144
5687.1,0.0142
5688.1,0.0144
5689.1,0.0146
5690.1,0.0147
5691.1,0.0149
5692.1,0.015
5693.1,0.0151
5694.1,0.015
5695.1,0.0148
5696.1,0.015
5697.1,0.0145
5698.1,0.0147
5699.1,0.0145
5700.1,0.0144
5701.1,0.0144
5702.1,0.0145
5703.1,0.0143
5704.1,0.0146
5705.1,0.0148
5706.1,0.015
5707.1,0.0148
5708.1,0.0148
5709.1,0.0147
5710.1,0.0144
5711.1,0.0144
5712.1,0.0143
5713.1,0.0145
5714.1,0.0144
5715.1,0.0145
5716.1,0.0144
5717.1,0.0144
5718.1,0.0148
5719.1,0.0148
5720.1,0.015
5721.1,0.015
5722.1,0.015
5723.1,0.0146
5724.1,0.0146
5725.1,0.0148
5726.1,0.0148
5727.1,0.0148
5728.1,0.0148
5729.1,0.0148
5730.1,0.0146
5731.1,0.0144
5732.1,0.0145
5733.1,0.0146
5734.1,0.0149
5735.1,0.015
5736.1,0.015
5737.1,0.0151
5738.1,0.0148
5739.1,0.0146
5740.1,0.0146
5741.1,0.0146
5742.1,0.0146
5743.1,0.0146
5744.1,0.0147
5745.1,0.0149
5746.1,0.015
5747.1,0.0152
5748.1,0.0154
5749.1,0.0156
5750.1,0.016
5751.1,0.0157
5752.1,0.0155
5753.1,0.0155
5754.1,0.0154
5755.1,0.0151
5756.1,0.015
5757.1,0.0151
5758.1,0.015
5759.1,0.0151
5760.1,0.0152
5761.1,0.0152
5762.1,0.0152
5763.1,0.0153
5764.1,0.0154
5765.1,0.0155
5766.1,0.0155
5767.1,0.0152
5768.1,0.0151
5769.1,0.0147
5770.1,0.0146
5771.1,0.0145
5772.1,0.0148
5773.1,0.0154
5774.1,0.0165
5775.1,0.0169
5776.1,0.017
5777.1,0.0166
5778.1,0.0162
5779.1,0.0161
5780.1,0.0165
5781.1,0.0168
5782.1,0.0171
5783.1,0.017
5784.1,0.0162
5785.1,0.0154
5786.1,0.0153
5787.1,0.0155
5788.1,0.0158
5789.1,0.0158
5790.1,0.0163
5791.1,0.0165
5792.1,0.0164
5793.1,0.0167
5794.1,0.0173
5795.1,0.0177
5796.1,0.0172
5797.1,0.0169
5798.1,0.016
5799.1,0.0154
5800.1,0.015
5801.1,0.0148
5802.1,0.015
5803.1,0.0151
5804.1,0.0156
5805.1,0.0154
5806.1,0.0156
5807.1,0.0157
5808.1,0.0157
5809.1,0.0153
5810.1,0.015
5811.1,0.0148
5812.1,0.0146
5813.1,0.0144
5814.1,0.0147
5815.1,0.0149
5816.1,0.015
5817.1,0.0155
5818.1,0.0157
5819.1,0.0163
5820.1,0.0171
5821.1,0.0173
5822.1,0.0181
5823.1,0.0188
5824.1,0.0182
5825.1,0.0176
5826.1,0.0178
5827.1,0.0177
5828.1,0.0176
5829.1,0.0177
5830.1,0.0175
5831.1,0.0173
5832.1,0.0172
5833.1,0.0167
5834.1,0.0164
5835.1,0.0163
5836.1,0.0158
5837.1,0.0155
5838.1,0.0149
5839.1,0.0145
5840.1,0.0145
5841.1,0.0146
5842.1,0.0146
5843.1,0.0147
5844.1,0.0148
5845.1,0.0147
5846.1,0.015
5847.1,0.0156
5848.1,0.0167
5849.1,0.0178
5850.1,0.0184
5851.1,0.019
5852.1,0.0191
5853.1,0.0186
5854.1,0.018
5855.1,0.0172
5856.1,0.0164
5857.1,0.0162
5858.1,0.0167
5859.1,0.017
5860.1,0.017
5861.1,0.017
5862.1,0.0163
5863.1,0.0154
5864.1,0.015
5865.1,0.0155
5866.1,0.0162
5867.1,0.0167
5868.1,0.0174
5869.1,0.017
5870.1,0.0173
5871.1,0.0171
5872.1,0.0169
5873.1,0.0167
5874.1,0.0167
5875.1,0.0164
5876.1,0.0161
5877.1,0.0165
5878.1,0.017
5879.1,0.0178
5880.1,0.0182
5881.1,0.0179
5882.1,0.0171
5883.1,0.0168
5884.1,0.0171
5885.1,0.0173
5886.1,0.0176
5887.1,0.0187
5888.1,0.0184
5889.1,0.0179
5890.1,0.0176
5891.1,0.0172
5892.1,0.0164
5893.1,0.0163
5894.1,0.0166
5895.1,0.0167
5896.1,0.0168
5897.1,0.0175
5898.1,0.0177
5899.1,0.0177
5900.1,0.0179
5901.1,0.0176
5902.1,0.0172
5903.1,0.0168
5904.1,0.0184
5905.1,0.0222
5906.1,0.0237
5907.1,0.0251
5908.1,0.0261
5909.1,0.0242
5910.1,0.0213
5911.1,0.0204
5912.1,0.0197
5913.1,0.0191
5914.1,0.0191
5915.1,0.0194
5916.1,0.0189
5917.1,0.0179
5918.1,0.0175
5919.1,0.0172
5920.1,0.0157
5921.1,0.0152
5922.1,0.015
5923.1,0.0156
5924.1,0.0162
5925.1,0.0171
5926.1,0.0176
5927.1,0.0176
5928.1,0.0182
5929.1,0.0188
5930.1,0.019
5931.1,0.0197
5932.1,0.02
5933.1,0.0185
5934.1,0.0173
5935.1,0.0164
5936.1,0.0155
5937.1,0.0151
5938.1,0.0149
5939.1,0.0149
5940.1,0.0152
5941.1,0.0159
5942.1,0.0164
5943.1,0.0169
5944.1,0.0173
5945.1,0.0175
5946.1,0.017
5947.1,0.0162
5948.1,0.0157
5949.1,0.015
5950.1,0.0148
5951.1,0.0147
5952.1,0.0151
5953.1,0.0153
5954.1,0.0158
5955.1,0.0162
5956.1,0.0162
5957.1,0.0163
5958.1,0.0162
5959.1,0.0158
5960.1,0.0157
5961.1,0.016
5962.1,0.0164
5963.1,0.0173
5964.1,0.018
5965.1,0.018
5966.1,0.0172
5967.1,0.0164
5968.1,0.0158
5969.1,0.0155
5970.1,0.0154
5971.1,0.016
5972.1,0.016
5973.1,0.0161
5974.1,0.016
5975.1,0.0161
5976.1,0.0172
5977.1,0.0179
5978.1,0.0183
5979.1,0.0189
5980.1,0.0195
5981.1,0.0197
5982.1,0.0196
5983.1,0.0195
5984.1,0.019
5985.1,0.018
5986.1,0.017
5987.1,0.0161
5988.1,0.0159
5989.1,0.0156
5990.1,0.0152
5991.1,0.0151
5992.1,0.0152
5993.1,0.0151
5994.1,0.0153
5995.1,0.0154
5996.1,0.0156
5997.1,0.0153
5998.1,0.0155
5999.1,0.0153
6000.1,0.0153
6001.1,0.0152
6002.1,0.0153
6003.1,0.0153
6004.1,0.0155
6005.1,0.0155
6006.1,0.0154
6007.1,0.0158
6008.1,0.017
6009.1,0.0175
6010.1,0.0176
6011.1,0.0178
6012.1,0.0176
6013.1,0.0167
6014.1,0.0164
6015.1,0.0163
6016.1,0.0162
6017.1,0.016
6018.1,0.0158
6019.1,0.0159
6020.1,0.0159
6021.1,0.0161
6022.1,0.0174
6023.1,0.0188
6024.1,0.0195
6025.1,0.0194
6026.1,0.0191
6027.1,0.017
6028.1,0.0161
6029.1,0.0177
6030.1,0.0193
6031.1,0.0201
6032.1,0.0204
6033.1,0.0204
6034.1,0.0186
6035.1,0.0163
6036.1,0.0158
6037.1,0.0156
6038.1,0.0158
6039.1,0.0161
6040.1,0.0167
6041.1,0.0172
6042.1,0.0174
6043.1,0.0166
6044.1,0.0161
6045.1,0.0151
6046.1,0.0147
6047.1,0.0148
6048.1,0.0149
6049.1,0.0153
6050.1,0.0162
6051.1,0.0169
6052.1,0.0171
6053.1,0.0173
6054.1,0.0173
6055.1,0.0164
6056.1,0.0156
6057.1,0.0158
6058.1,0.016
6059.1,0.0163
6060.1,0.0169
6061.1,0.0174
6062.1,0.0175
6063.1,0.0171
6064.1,0.0171
6065.1,0.0174
6066.1,0.0182
6067.1,0.019
6068.1,0.0191
6069.1,0.019
6070.1,0.0173
6071.1,0.016
6072.1,0.0167
6073.1,0.0178
6074.1,0.0185
6075.1,0.0188
6076.1,0.0184
6077.1,0.0175
6078.1,0.0156
6079.1,0.0153
6080.1,0.0158
6081.1,0.016
6082.1,0.0163
6083.1,0.0165
6084.1,0.0163
6085.1,0.016
6086.1,0.0157
6087.1,0.0156
6088.1,0.0154
6089.1,0.0151
6090.1,0.015
6091.1,0.015
6092.1,0.0154
6093.1,0.0157
6094.1,0.0163
6095.1,0.0163
6096.1,0.0167
6097.1,0.0169
6098.1,0.0163
6099.1,0.0159
6100.1,0.0156
6101.1,0.0156
6102.1,0.0151
6103.1,0.0151
6104.1,0.015
6105.1,0.0152
6106.1,0.0148
6107.1,0.0149
6108.1,0.016
6109.1,0.0175
6110.1,0.0187
6111.1,0.0194
6112.1,0.0197
6113.1,0.0189
6114.1,0.0181
6115.1,0.0175
6116.1,0.017
6117.1,0.0168
6118.1,0.0171
6119.1,0.0174
6120.1,0.0177
6121.1,0.0188
6122.1,0.0207
6123.1,0.0224
6124.1,0.0224
6125.1,0.022
6126.1,0.0208
6127.1,0.0183
6128.1,0.0153
6129.1,0.0148
6130.1,0.0145
6131.1,0.0146
6132.1,0.0147
6133.1,0.015
6134.1,0.0154
6135.1,0.0158
6136.1,0.0159
6137.1,0.016
6138.1,0.0158
6139.1,0.0157
6140.1,0.0157
6141.1,0.0156
6142.1,0.0154
6143.1,0.0154
6144.1,0.0157
6145.1,0.0159
6146.1,0.0162
6147.1,0.017
6148.1,0.0169
6149.1,0.0167
6150.1,0.0165
6151.1,0.0161
6152.1,0.0151
6153.1,0.0149
6154.1,0.015
6155.1,0.0154
6156.1,0.0157
6157.1,0.0158
6158.1,0.0166
6159.1,0.0168
6160.1,0.0171
6161.1,0.0181
6162.1,0.0186
6163.1,0.0183
6164.1,0.0179
6165.1,0.0175
6166.1,0.0164
6167.1,0.0157
6168.1,0.0152
6169.1,0.015
6170.1,0.0152
6171.1,0.0153
6172.1,0.0163
6173.1,0.0168
6174.1,0.0171
6175.1,0.017
6176.1,0.0171
6177.1,0.0168
6178.1,0.0165
6179.1,0.0162
6180.1,0.016
6181.1,0.0162
6182.1,0.0165
6183.1,0.0171
6184.1,0.0172
6185.1,0.0176
6186.1,0.0173
6187.1,0.0169
6188.1,0.0168
6189.1,0.0171
6190.1,0.0171
6191.1,0.0172
6192.1,0.0166
6193.1,0.0157
6194.1,0.0151
6195.1,0.0148
6196.1,0.0146
6197.1,0.0145
6198.1,0.0144
6199.1,0.0143
6200.1,0.0143
6201.1,0.0145
6202.1,0.0146
6203.1,0.0146
6204.1,0.0148
6205.1,0.0148
6206.1,0.015
6207.1,0.0147
6208.1,0.0148
6209.1,0.0146
6210.1,0.0147
6211.1,0.015
6212.1,0.0155
6213.1,0.0162
6214.1,0.0174
6215.1,0.0176
6216.1,0.0176
6217.1,0.0172
6218.1,0.0165
6219.1,0.0159
6220.1,0.0159
6221.1,0.016
6222.1,0.016
6223.1,0.0159
6224.1,0.0156
6225.1,0.0153
6226.1,0.0156
6227.1,0.0166
6228.1,0.0183
6229.1,0.0188
6230.1,0.0189
6231.1,0.0184
6232.1,0.0174
6233.1,0.016
6234.1,0.0157
6235.1,0.0155
6236.1,0.0157
6237.1,0.0157
6238.1,0.0155
6239.1,0.0156
6240.1,0.0155
6241.1,0.0155
6242.1,0.0154
6243.1,0.0151
6244.1,0.015
6245.1,0.015
6246.1,0.0151
6247.1,0.0153
6248.1,0.0154
6249.1,0.0161
6250.1,0.0162
6251.1,0.0166
6252.1,0.0169
6253.1,0.0171
6254.1,0.0175
6255.1,0.0172
6256.1,0.0172
6257.1,0.0166
6258.1,0.0162
6259.1,0.0156
6260.1,0.0151
6261.1,0.015
6262.1,0.0151
6263.1,0.0156
6264.1,0.0154
6265.1,0.0157
6266.1,0.016
6267.1,0.0163
6268.1,0.0166
6269.1,0.0166
6270.1,0.0167
6271.1,0.016
6272.1,0.0155
6273.1,0.0152
6274.1,0.0149
6275.1,0.0152
6276.1,0.0156
6277.1,0.0157
6278.1,0.0158
6279.1,0.0155
6280.1,0.0151
6281.1,0.0147
6282.1,0.0148
6283.1,0.0145
6284.1,0.0145
6285.1,0.0146
6286.1,0.0147
6287.1,0.0148
6288.1,0.0149
6289.1,0.0155
6290.1,0.016
6291.1,0.0168
6292.1,0.0174
6293.1,0.0177
6294.1,0.0175
6295.1,0.0169
6296.1,0.0159
6297.1,0.0151
6298.1,0.0149
6299.1,0.0146
6300.1,0.0146
6301.1,0.0144
6302.1,0.0143
6303.1,0.0144
6304.1,0.0144
6305.1,0.0143
6306.1,0.0145
6307.1,0.0144
6308.1,0.0144
6309.1,0.0145
6310.1,0.0146
6311.1,0.0145
6312.1,0.0145
6313.1,0.0147
6314.1,0.0151
6315.1,0.0154
6316.1,0.0164
6317.1,0.0167
6318.1,0.0168
6319.1,0.0166
6320.1,0.0165
6321.1,0.016
6322.1,0.0155
6323.1,0.0154
6324.1,0.0156
6325.1,0.0157
6326.1,0.0154
6327.1,0.0157
6328.1,0.0158
6329.1,0.0159
6330.1,0.0166
6331.1,0.0168
6332.1,0.0162
6333.1,0.0159
6334.1,0.0154
6335.1,0.015
6336.1,0.0147
6337.1,0.0146
6338.1,0.0148
6339.1,0.015
6340.1,0.0151
6341.1,0.0151
6342.1,0.0151
6343.1,0.0149
6344.1,0.0147
6345.1,0.0145
6346.1,0.0144
6347.1,0.0144
6348.1,0.0145
6349.1,0.0145
6350.1,0.0146
6351.1,0.0148
6352.1,0.0148
6353.1,0.015
6354.1,0.015
6355.1,0.0152
6356.1,0.0152
6357.1,0.015
6358.1,0.015
6359.1,0.0152
6360.1,0.0152
6361.1,0.0154
6362.1,0.0157
6363.1,0.0158
6364.1,0.0161
6365.1,0.0164
6366.1,0.0167
6367.1,0.0172
6368.1,0.0176
6369.1,0.0179
6370.1,0.0179
6371.1,0.0176
6372.1,0.0173
6373.1,0.0174
6374.1,0.0171
6375.1,0.0172
6376.1,0.0173
6377.1,0.0177
6378.1,0.0177
6379.1,0.0176
6380.1,0.0174
6381.1,0.0174
6382.1,0.0172
6383.1,0.0171
6384.1,0.0171
6385.1,0.0169
6386.1,0.017
6387.1,0.0168
6388.1,0.0171
6389.1,0.0176
6390.1,0.0179
6391.1,0.0181
6392.1,0.0183
6393.1,0.0183
6394.1,0.0184
6395.1,0.0182
6396.1,0.0181
6397.1,0.018
6398.1,0.0179
6399.1,0.0177
6400.1,0.0177
6401.1,0.0177
6402.1,0.0179
6403.1,0.0179
6404.1,0.0179
6405.1,0.0177
6406.1,0.0178
6407.1,0.0176
6408.1,0.0178
6409.1,0.0178
6410.1,0.018
6411.1,0.0179
6412.1,0.0178
6413.1,0.0177
6414.1,0.0173
6415.1,0.0171
6416.1,0.0171
6417.1,0.0173
6418.1,0.0176
6419.1,0.0178
6420.1,0.0183
6421.1,0.0186
6422.1,0.0183
6423.1,0.0181
6424.1,0.0177
6425.1,0.0173
6426.1,0.0171
6427.1,0.0171
6428.1,0.017
6429.1,0.0167
6430.1,0.0169
6431.1,0.017
6432.1,0.0172
6433.1,0.0172
6434.1,0.0171
6435.1,0.0169
6436.1,0.0167
6437.1,0.0165
6438.1,0.0167
6439.1,0.0168
6440.1,0.0168
6441.1,0.0168
6442.1,0.0167
6443.1,0.0167
6444.1,0.0168
6445.1,0.0166
6446.1,0.0164
6447.1,0.0165
6448.1,0.0163
6449.1,0.0163
6450.1,0.0161
6451.1,0.0161
6452.1,0.0159
6453.1,0.0162
6454.1,0.0162
6455.1,0.0162
6456.1,0.0165
6457.1,0.0164
6458.1,0.0162
6459.1,0.0161
6460.1,0.0157
6461.1,0.0158
6462.1,0.0158
6463.1,0.0157
6464.1,0.0158
6465.1,0.0158
6466.1,0.0158
6467.1,0.0157
6468.1,0.0158
6469.1,0.0156
6470.1,0.0158
6471.1,0.0159
6472.1,0.0157
6473.1,0.0159
6474.1,0.0158
6475.1,0.0158
6476.1,0.0159
6477.1,0.0156
6478.1,0.0157
6479.1,0.0156
6480.1,0.0155
6481.1,0.0157
6482.1,0.0155
6483.1,0.0156
6484.1,0.0157
6485.1,0.0158
6486.1,0.0157
6487.1,0.0158
6488.1,0.0157
6489.1,0.0158
6490.1,0.0158
6491.1,0.016
6492.1,0.0161
6493.1,0.016
6494.1,0.0161
6495.1,0.0159
6496.1,0.0156
6497.1,0.0156
6498.1,0.0157
6499.1,0.0157
6500.1,0.0156
6501.1,0.0156
6502.1,0.0157
6503.1,0.0157
6504.1,0.0156
6505.1,0.0157
6506.1,0.0159
6507.1,0.0158
6508.1,0.0156
6509.1,0.0156
6510.1,0.0157
6511.1,0.0157
6512.1,0.0159
6513.1,0.0159
6514.1,0.0159
6515.1,0.0157
6516.1,0.0159
6517.1,0.0161
6518.1,0.0159
6519.1,0.0161
6520.1,0.0165
6521.1,0.0165
6522.1,0.0167
6523.1,0.0169
6524.1,0.0168
6525.1,0.0171
6526.1,0.0176
6527.1,0.0183
6528.1,0.0193
6529.1,0.0197
6530.1,0.0198
6531.1,0.0192
6532.1,0.0189
6533.1,0.0184
6534.1,0.0176
6535.1,0.0171
6536.1,0.0167
6537.1,0.0164
6538.1,0.0163
6539.1,0.0161
6540.1,0.0163
6541.1,0.0161
6542.1,0.0162
6543.1,0.0162
6544.1,0.016
6545.1,0.0161
6546.1,0.0161
6547.1,0.0163
6548.1,0.0165
6549.1,0.0163
6550.1,0.0165
6551.1,0.0165
6552.1,0.0164
6553.1,0.0162
6554.1,0.0162
6555.1,0.0164
6556.1,0.0165
6557.1,0.0164
6558.1,0.0163
6559.1,0.0163
6560.1,0.0163
6561.1,0.0164
6562.1,0.0164
6563.1,0.0165
6564.1,0.0166
6565.1,0.0166
6566.1,0.0166
6567.1,0.0164
6568.1,0.0168
6569.1,0.0167
6570.1,0.0165
6571.1,0.0167
6572.1,0.0167
6573.1,0.0168
6574.1,0.0166
6575.1,0.0167
6576.1,0.0166
6577.1,0.0167
6578.1,0.0166
6579.1,0.0169
6580.1,0.0168
6581.1,0.0167
6582.1,0.0169
6583.1,0.0169
6584.1,0.0168
6585.1,0.0168
6586.1,0.0169
6587.1,0.0171
6588.1,0.017
6589.1,0.0174
6590.1,0.0173
6591.1,0.0176
6592.1,0.0176
6593.1,0.0176
6594.1,0.0175
6595.1,0.0175
6596.1,0.0176
6597.1,0.0177
6598.1,0.0176
6599.1,0.0174
6600.1,0.0176
6601.1,0.0178
6602.1,0.0176
6603.1,0.0179
6604.1,0.0179
6605.1,0.0181
6606.1,0.0182
6607.1,0.0181
6608.1,0.0184
6609.1,0.0186
6610.1,0.0186
6611.1,0.0189
6612.1,0.0189
6613.1,0.0189
6614.1,0.0192
6615.1,0.0194
6616.1,0.0195
6617.1,0.0198
6618.1,0.0196
6619.1,0.0201
6620.1,0.0202
6621.1,0.0206
6622.1,0.0208
6623.1,0.0211
6624.1,0.021
6625.1,0.0217
6626.1,0.0219
6627.1,0.0225
6628.1,0.0229
6629.1,0.0233
6630.1,0.0238
6631.1,0.0241
6632.1,0.0246
6633.1,0.0257
6634.1,0.0276
6635.1,0.0286
6636.1,0.0294
6637.1,0.0302
6638.1,0.0315
6639.1,0.0339
6640.1,0.0355
6641.1,0.0372
6642.1,0.0409
6643.1,0.0436
6644.1,0.0511
6645.1,0.0584
6646.1,0.0674
6647.1,0.085
6648.1,0.0999
6649.1,0.1224
6650.1,0.1957
6651.1,0.2239
6652.1,0.8585
6653.1,6.0748
6654.1,24.19
6655.1,24.4348
6656.1,27.963
6657.1,27.88
6658.1,19.1194
6659.1,7.2309
6660.1,4.151
6661.1,0.4204
6662.1,0.2963
6663.1,0.1535
6664.1,0.1072
6665.1,0.0911
6666.1,0.079
6667.1,0.0652
6668.1,0.0578
6669.1,0.0514
6670.1,0.0445
6671.1,0.041
6672.1,0.0372
6673.1,0.0352
6674.1,0.0329
6675.1,0.0305
6676.1,0.0294
6677.1,0.0287
6678.1,0.0272
6679.1,0.0262
6680.1,0.026
6681.1,0.0251
6682.1,0.0248
6683.1,0.0239
6684.1,0.0235
6685.1,0.0233
6686.1,0.0226
6687.1,0.0221
6688.1,0.0218
6689.1,0.0216
6690.1,0.0215
6691.1,0.0211
6692.1,0.0208
6693.1,0.0204
6694.1,0.0201
6695.1,0.02
6696.1,0.0197
6697.1,0.0198
6698.1,0.0197
6699.1,0.0194
6700.1,0.0193
6701.1,0.0188
6702.1,0.019
6703.1,0.0187
6704.1,0.0186
6705.1,0.0186
6706.1,0.0184
6707.1,0.0181
6708.1,0.0182
6709.1,0.0181
6710.1,0.0181
6711.1,0.0181
6712.1,0.0181
6713.1,0.0179
6714.1,0.0179
6715.1,0.0179
6716.1,0.0177
6717.1,0.0176
6718.1,0.0175
6719.1,0.0174
6720.1,0.0175
6721.1,0.0173
6722.1,0.0172
6723.1,0.0172
6724.1,0.0172
6725.1,0.017
6726.1,0.0171
6727.1,0.0169
6728.1,0.017
6729.1,0.017
6730.1,0.0169
6731.1,0.0169
6732.1,0.0169
6733.1,0.0168
6734.1,0.0169
6735.1,0.017
6736.1,0.0168
6737.1,0.0168
6738.1,0.0169
6739.1,0.0167
6740.1,0.0166
6741.1,0.0167
6742.1,0.0165
6743.1,0.0164
6744.1,0.0165
6745.1,0.0166
6746.1,0.0165
6747.1,0.0165
6748.1,0.0165
6749.1,0.0164
6750.1,0.0165
6751.1,0.0164
6752.1,0.0163
6753.1,0.0165
6754.1,0.0165
6755.1,0.0164
6756.1,0.0165
6757.1,0.0166
6758.1,0.0165
6759.1,0.0164
6760.1,0.0163
6761.1,0.0163
6762.1,0.0164
6763.1,0.0163
6764.1,0.0162
6765.1,0.0162
6766.1,0.0162
6767.1,0.0162
6768.1,0.0162
6769.1,0.0164
6770.1,0.0165
6771.1,0.0165
6772.1,0.0168
6773.1,0.0167
6774.1,0.0169
6775.1,0.0169
6776.1,0.0173
6777.1,0.0174
6778.1,0.0175
6779.1,0.0176
6780.1,0.0173
6781.1,0.0171
6782.1,0.0167
6783.1,0.0166
6784.1,0.0164
6785.1,0.0162
6786.1,0.0161
6787.1,0.0161
6788.1,0.0161
6789.1,0.0162
6790.1,0.016
6791.1,0.0159
6792.1,0.0161
6793.1,0.016
6794.1,0.016
6795.1,0.016
6796.1,0.016
6797.1,0.016
6798.1,0.016
6799.1,0.0159
6800.1,0.0159
6801.1,0.016
6802.1,0.0161
6803.1,0.0159
6804.1,0.0161
6805.1,0.016
6806.1,0.016
6807.1,0.0159
6808.1,0.0161
6809.1,0.0159
6810.1,0.0159
6811.1,0.0161
6812.1,0.016
6813.1,0.0161
6814.1,0.016
6815.1,0.0159
6816.1,0.016
6817.1,0.0159
6818.1,0.0159
6819.1,0.016
6820.1,0.0158
6821.1,0.0159
6822.1,0.0159
6823.1,0.0157
6824.1,0.016
6825.1,0.0159
6826.1,0.016
6827.1,0.0159
6828.1,0.0159
6829.1,0.016
6830.1,0.0159
6831.1,0.016
6832.1,0.0162
6833.1,0.0158
6834.1,0.0159
6835.1,0.016
6836.1,0.016
6837.1,0.0159
6838.1,0.0161
6839.1,0.0158
6840.1,0.0159
6841.1,0.016
6842.1,0.016
6843.1,0.0158
6844.1,0.0161
6845.1,0.016
6846.1,0.0158
6847.1,0.016
6848.1,0.0161
6849.1,0.0163
6850.1,0.0161
6851.1,0.0162
6852.1,0.0162
6853.1,0.0161
6854.1,0.0162
6855.1,0.0161
6856.1,0.0163
6857.1,0.0162
6858.1,0.0162
6859.1,0.0164
6860.1,0.0163
6861.1,0.0167
6862.1,0.0168
6863.1,0.0169
6864.1,0.0171
6865.1,0.0173
6866.1,0.0174
6867.1,0.0175
6868.1,0.0177
6869.1,0.0176
6870.1,0.0177
6871.1,0.0176
6872.1,0.0175
6873.1,0.0174
6874.1,0.0176
6875.1,0.0176
6876.1,0.0179
6877.1,0.0176
6878.1,0.0176
6879.1,0.0176
6880.1,0.0175
6881.1,0.0176
6882.1,0.0176
6883.1,0.0177
6884.1,0.0176
6885.1,0.0175
6886.1,0.0176
6887.1,0.0178
6888.1,0.0177
6889.1,0.0179
6890.1,0.0178
6891.1,0.0178
6892.1,0.0179
6893.1,0.0179
6894.1,0.0183
6895.1,0.018
6896.1,0.0181
6897.1,0.0181
6898.1,0.0183
6899.1,0.0183
6900.1,0.0181
6901.1,0.0181
6902.1,0.0181
6903.1,0.0178
6904.1,0.0178
6905.1,0.0177
6906.1,0.0178
6907.1,0.0177
6908.1,0.0176
6909.1,0.0175
6910.1,0.0176
6911.1,0.0173
6912.1,0.0174
6913.1,0.0171
6914.1,0.0171
6915.1,0.0172
6916.1,0.017
6917.1,0.0172
6918.1,0.017
6919.1,0.0168
6920.1,0.0171
6921.1,0.0167
6922.1,0.0168
6923.1,0.0169
6924.1,0.0167
6925.1,0.0166
6926.1,0.0167
6927.1,0.0167
6928.1,0.0166
6929.1,0.0165
6930.1,0.0163
6931.1,0.0162
6932.1,0.0161
6933.1,0.0164
6934.1,0.0162
6935.1,0.016
6936.1,0.0158
6937.1,0.0157
6938.1,0.0157
6939.1,0.0157
6940.1,0.0157
6941.1,0.0156
6942.1,0.0156
6943.1,0.0154
6944.1,0.0154
6945.1,0.0153
6946.1,0.0152
6947.1,0.0149
6948.1,0.0148
6949.1,0.0147
6950.1,0.0145
6951.1,0.0145
6952.1,0.0143
6953.1,0.0143
6954.1,0.0143
6955.1,0.0143
6956.1,0.0143
6957.1,0.0142
6958.1,0.0144
6959.1,0.0141
6960.1,0.0142
6961.1,0.0142
6962.1,0.0142
6963.1,0.0142
6964.1,0.0143
6965.1,0.0143
6966.1,0.0143
6967.1,0.0142
6968.1,0.0144
6969.1,0.0144
6970.1,0.0143
6971.1,0.0144
6972.1,0.0144
6973.1,0.0145
6974.1,0.0141
6975.1,0.0144
6976.1,0.0143
6977.1,0.0143
6978.1,0.0144
6979.1,0.0143
6980.1,0.0143
6981.1,0.0143
6982.1,0.0143
6983.1,0.0142
6984.1,0.0142
6985.1,0.0142
6986.1,0.0142
6987.1,0.0142
6988.1,0.0142
6989.1,0.0142
6990.1,0.0142
6991.1,0.0143
6992.1,0.0143
6993.1,0.0144
6994.1,0.0143
6995.1,0.0143
6996.1,0.0144
6997.1,0.0142
6998.1,0.0142
6999.1,0.0142
7000.1,0.0142
7001.1,0.0143
7002.1,0.0141
7003.1,0.0143
7004.1,0.0142
7005.1,0.0141
7006.1,0.0142
