Wavelength (Å) - Plot 0,Signal Amplitude (V) - Plot 0
3241,0.0138
3242,0.0137
3243,0.0139
3244,0.0137
3245,0.0138
3246,0.0139
3247,0.0138
3248,0.0137
3249,0.0138
3250,0.0138
3251,0.0138
3252,0.0138
3253,0.0138
3254,0.0138
3255,0.0138
3256,0.0138
3257,0.0138
3258,0.0137
3259,0.0137
3260,0.0138
3261,0.0138
3262,0.0138
3263,0.014
3264,0.0138
3265,0.0138
3266,0.0139
3267,0.0136
3268,0.0137
3269,0.0137
3270,0.0139
3271,0.0138
3272,0.0138
3273,0.0138
3274,0.0138
3275,0.0138
3276,0.0138
3277,0.0139
3278,0.0138
3279,0.0139
3280,0.0138
3281,0.0138
3282,0.0138
3283,0.0138
3284,0.0138
3285,0.014
3286,0.0139
3287,0.0138
3288,0.014
3289,0.0138
3290,0.0137
3291,0.0137
3292,0.0138
3293,0.0138
3294,0.0139
3295,0.0138
3296,0.0138
3297,0.0138
3298,0.0139
3299,0.0138
3300,0.0137
3301,0.0139
3302,0.0138
3303,0.0138
3304,0.0139
3305,0.0138
3306,0.0137
3307,0.0138
3308,0.0138
3309,0.0138
3310,0.0138
3311,0.0139
3312,0.0137
3313,0.0137
3314,0.0138
3315,0.0137
3316,0.0139
3317,0.0138
3318,0.0138
3319,0.0139
3320,0.014
3321,0.0139
3322,0.0138
3323,0.0137
3324,0.014
3325,0.0139
3326,0.0137
3327,0.0138
3328,0.0137
3329,0.0139
3330,0.0138
3331,0.0138
3332,0.0138
3333,0.0138
3334,0.0138
3335,0.0138
3336,0.0138
3337,0.0138
3338,0.0138
3339,0.0138
3340,0.0137
3341,0.0139
3342,0.0137
3343,0.0136
3344,0.0138
3345,0.0138
3346,0.0137
3347,0.0138
3348,0.0138
3349,0.0139
3350,0.0138
3351,0.014
3352,0.0138
3353,0.014
3354,0.0139
3355,0.0139
3356,0.0136
3357,0.0138
3358,0.0137
3359,0.0139
3360,0.0138
3361,0.0139
3362,0.0139
3363,0.0138
3364,0.0138
3365,0.0138
3366,0.014
3367,0.0139
3368,0.014
3369,0.0138
3370,0.0138
3371,0.0138
3372,0.0139
3373,0.0139
3374,0.0137
3375,0.0139
3376,0.0138
3377,0.0137
3378,0.0139
3379,0.0139
3380,0.0136
3381,0.0138
3382,0.0137
3383,0.0139
3384,0.0139
3385,0.0139
3386,0.014
3387,0.0139
3388,0.0139
3389,0.0138
3390,0.0139
3391,0.0138
3392,0.0137
3393,0.0139
3394,0.0139
3395,0.0138
3396,0.0139
3397,0.0138
3398,0.0139
3399,0.0139
3400,0.0138
3401,0.0139
3402,0.014
3403,0.014
3404,0.0139
3405,0.0138
3406,0.0138
3407,0.0138
3408,0.014
3409,0.0139
3410,0.0139
3411,0.0139
3412,0.014
3413,0.014
3414,0.0139
3415,0.014
3416,0.0139
3417,0.0141
3418,0.0139
3419,0.014
3420,0.0139
3421,0.0138
3422,0.014
3423,0.0162
3424,0.0183
3425,0.0205
3426,0.0235
3427,0.0256
3428,0.0275
3429,0.028
3430,0.0306
3431,0.0327
3432,0.0334
3433,0.0338
3434,0.0337
3435,0.0332
3436,0.0316
3437,0.028
3438,0.0272
3439,0.0239
3440,0.0213
3441,0.0199
3442,0.0177
3443,0.0164
3444,0.0153
3445,0.0145
3446,0.0143
3447,0.0142
3448,0.0141
3449,0.0143
3450,0.0143
3451,0.0143
3452,0.0144
3453,0.0143
3454,0.0144
3455,0.0145
3456,0.0145
3457,0.0144
3458,0.0144
3459,0.0146
3460,0.0146
3461,0.0146
3462,0.0145
3463,0.0145
3464,0.0147
3465,0.0145
3466,0.0144
3467,0.0146
3468,0.0145
3469,0.0145
3470,0.0147
3471,0.0148
3472,0.0146
3473,0.0146
3474,0.0146
3475,0.0146
3476,0.0147
3477,0.0145
3478,0.0146
3479,0.0147
3480,0.0146
3481,0.0145
3482,0.0147
3483,0.0147
3484,0.0146
3485,0.0146
3486,0.0145
3487,0.0146
3488,0.0146
3489,0.0146
3490,0.0146
3491,0.0145
3492,0.0146
3493,0.0146
3494,0.0146
3495,0.0145
3496,0.0146
3497,0.0148
3498,0.0145
3499,0.0146
3500,0.0146
3501,0.0145
3502,0.0145
3503,0.0146
3504,0.0145
3505,0.0145
3506,0.0146
3507,0.0145
3508,0.0146
3509,0.0145
3510,0.0145
3511,0.0146
3512,0.0147
3513,0.0145
3514,0.0145
3515,0.0145
3516,0.0145
3517,0.0146
3518,0.0145
3519,0.0145
3520,0.0145
3521,0.0145
3522,0.0145
3523,0.0145
3524,0.0145
3525,0.0145
3526,0.0146
3527,0.0145
3528,0.0145
3529,0.0146
3530,0.0147
3531,0.0145
3532,0.0143
3533,0.0145
3534,0.0145
3535,0.0145
3536,0.0145
3537,0.0144
3538,0.0146
3539,0.0145
3540,0.0144
3541,0.0143
3542,0.0144
3543,0.0144
3544,0.0145
3545,0.0145
3546,0.0145
3547,0.0145
3548,0.0145
3549,0.0144
3550,0.0143
3551,0.0146
3552,0.0145
3553,0.0145
3554,0.0144
3555,0.0145
3556,0.0145
3557,0.0146
3558,0.0144
3559,0.0145
3560,0.0147
3561,0.0145
3562,0.0145
3563,0.0146
3564,0.0146
3565,0.0144
3566,0.0145
3567,0.0146
3568,0.0145
3569,0.0146
3570,0.0146
3571,0.0145
3572,0.0147
3573,0.0145
3574,0.0148
3575,0.0146
3576,0.0146
3577,0.0146
3578,0.0146
3579,0.0146
3580,0.0145
3581,0.0145
3582,0.0146
3583,0.0147
3584,0.0147
3585,0.0147
3586,0.0148
3587,0.0147
3588,0.0146
3589,0.0147
3590,0.0146
3591,0.0146
3592,0.0148
3593,0.0148
3594,0.0148
3595,0.0147
3596,0.0147
3597,0.0148
3598,0.0149
3599,0.0146
3600,0.0149
3601,0.0149
3602,0.0148
3603,0.015
3604,0.015
3605,0.0152
3606,0.0151
3607,0.0153
3608,0.0153
3609,0.0155
3610,0.0155
3611,0.0154
3612,0.0154
3613,0.0154
3614,0.0152
3615,0.0153
3616,0.0152
3617,0.0149
3618,0.0149
3619,0.0149
3620,0.0151
3621,0.0149
3622,0.0149
3623,0.015
3624,0.015
3625,0.0149
3626,0.0151
3627,0.015
3628,0.0149
3629,0.015
3630,0.015
3631,0.015
3632,0.0149
3633,0.0149
3634,0.0151
3635,0.015
3636,0.0152
3637,0.0152
3638,0.015
3639,0.0154
3640,0.0154
3641,0.0154
3642,0.0154
3643,0.0154
3644,0.0153
3645,0.0157
3646,0.0156
3647,0.0154
3648,0.0156
3649,0.0156
3650,0.0156
3651,0.0156
3652,0.0156
3653,0.0155
3654,0.0156
3655,0.0156
3656,0.0157
3657,0.0156
3658,0.0157
3659,0.0156
3660,0.0158
3661,0.0156
3662,0.0157
3663,0.0157
3664,0.0157
3665,0.0155
3666,0.0156
3667,0.0156
3668,0.0156
3669,0.0155
3670,0.0156
3671,0.0155
3672,0.0156
3673,0.0155
3674,0.0156
3675,0.0155
3676,0.0156
3677,0.0157
3678,0.0158
3679,0.0159
3680,0.0158
3681,0.0158
3682,0.0159
3683,0.0159
3684,0.0158
3685,0.0158
3686,0.016
3687,0.0157
3688,0.0161
3689,0.016
3690,0.016
3691,0.0162
3692,0.016
3693,0.0161
3694,0.016
3695,0.016
3696,0.0161
3697,0.0161
3698,0.0161
3699,0.0163
3700,0.0163
3701,0.0163
3702,0.0162
3703,0.0164
3704,0.0163
3705,0.0163
3706,0.0165
3707,0.0164
3708,0.0164
3709,0.0166
3710,0.0166
3711,0.0166
3712,0.0167
3713,0.0166
3714,0.0167
3715,0.0169
3716,0.017
3717,0.0172
3718,0.0172
3719,0.0175
3720,0.0177
3721,0.0179
3722,0.0181
3723,0.0184
3724,0.0187
3725,0.019
3726,0.0196
3727,0.0199
3728,0.0208
3729,0.022
3730,0.0234
3731,0.0254
3732,0.0949
3733,0.232
3734,0.46
3735,0.6462
3736,0.901
3737,1.0997
3738,1.3578
3739,1.5192
3740,1.6744
3741,1.8705
3742,1.971
3743,2.016
3744,2.0256
3745,1.9852
3746,1.9046
3747,1.6394
3748,1.41
3749,1.2678
3750,1.0974
3751,0.8472
3752,0.6944
3753,0.4965
3754,0.3816
3755,0.3135
3756,0.2766
3757,0.2495
3758,0.2217
3759,0.1775
3760,0.1406
3761,0.1214
3762,0.1038
3763,0.0787
3764,0.0648
3765,0.0517
3766,0.0349
3767,0.03
3768,0.0206
3769,0.0186
3770,0.0181
3771,0.0177
3772,0.0177
3773,0.0176
3774,0.0174
3775,0.0174
3776,0.0174
3777,0.0172
3778,0.0172
3779,0.0171
3780,0.0171
3781,0.017
3782,0.017
3783,0.017
3784,0.0169
3785,0.0169
3786,0.0168
3787,0.0169
3788,0.017
3789,0.0172
3790,0.017
3791,0.0173
3792,0.0174
3793,0.0173
3794,0.0176
3795,0.0174
3796,0.0175
3797,0.0174
3798,0.0173
3799,0.0172
3800,0.017
3801,0.0168
3802,0.0168
3803,0.0166
3804,0.0164
3805,0.0163
3806,0.0162
3807,0.0162
3808,0.0161
3809,0.0161
3810,0.0161
3811,0.0159
3812,0.0161
3813,0.016
3814,0.0158
3815,0.016
3816,0.0161
3817,0.0159
3818,0.0159
3819,0.0159
3820,0.0158
3821,0.016
3822,0.0158
3823,0.0159
3824,0.0158
3825,0.0159
3826,0.0157
3827,0.0158
3828,0.0159
3829,0.0158
3830,0.0159
3831,0.0157
3832,0.0158
3833,0.0158
3834,0.0159
3835,0.0159
3836,0.0158
3837,0.0158
3838,0.0157
3839,0.0158
3840,0.0157
3841,0.0158
3842,0.0158
3843,0.0159
3844,0.0158
3845,0.0158
3846,0.0159
3847,0.0159
3848,0.016
3849,0.0161
3850,0.0159
3851,0.016
3852,0.0161
3853,0.0161
3854,0.0162
3855,0.0161
3856,0.0162
3857,0.0162
3858,0.0162
3859,0.0163
3860,0.0162
3861,0.0163
3862,0.0164
3863,0.0162
3864,0.0164
3865,0.0162
3866,0.0162
3867,0.0163
3868,0.0163
3869,0.0161
3870,0.0162
3871,0.0162
3872,0.0163
3873,0.0162
3874,0.016
3875,0.0161
3876,0.0162
3877,0.016
3878,0.0161
3879,0.0161
3880,0.0159
3881,0.0162
3882,0.0161
3883,0.016
3884,0.0161
3885,0.0163
3886,0.0162
3887,0.0162
3888,0.0164
3889,0.0162
3890,0.0164
3891,0.0164
3892,0.0161
3893,0.0164
3894,0.0163
3895,0.0164
3896,0.0165
3897,0.0163
3898,0.0161
3899,0.0163
3900,0.0162
3901,0.016
3902,0.016
3903,0.0159
3904,0.0161
3905,0.0159
3906,0.0161
3907,0.0159
3908,0.016
3909,0.0159
3910,0.0159
3911,0.0161
3912,0.0159
3913,0.0162
3914,0.016
3915,0.016
3916,0.0161
3917,0.016
3918,0.0162
3919,0.0161
3920,0.0161
3921,0.0162
3922,0.0162
3923,0.0163
3924,0.0162
3925,0.0163
3926,0.0162
3927,0.0162
3928,0.0162
3929,0.0164
3930,0.0162
3931,0.0159
3932,0.016
3933,0.0159
3934,0.0158
3935,0.0159
3936,0.0158
3937,0.0158
3938,0.0157
3939,0.0159
3940,0.0158
3941,0.0159
3942,0.0158
3943,0.016
3944,0.016
3945,0.0158
3946,0.0159
3947,0.016
3948,0.0159
3949,0.0161
3950,0.0162
3951,0.0161
3952,0.0161
3953,0.0163
3954,0.0161
3955,0.0162
3956,0.0163
3957,0.0162
3958,0.0163
3959,0.0163
3960,0.0163
3961,0.0163
3962,0.0162
3963,0.0163
3964,0.0163
3965,0.0162
3966,0.0162
3967,0.0163
3968,0.0162
3969,0.0163
3970,0.0163
3971,0.0162
3972,0.0161
3973,0.0164
3974,0.0161
3975,0.0162
3976,0.0162
3977,0.0162
3978,0.0162
3979,0.0163
3980,0.0162
3981,0.0162
3982,0.0163
3983,0.0163
3984,0.0162
3985,0.0166
3986,0.0167
3987,0.017
3988,0.0172
3989,0.0179
3990,0.0186
3991,0.0201
3992,0.0212
3993,0.0221
3994,0.0235
3995,0.0242
3996,0.0253
3997,0.0255
3998,0.0257
3999,0.0261
4000,0.026
4001,0.026
4002,0.0253
4003,0.0244
4004,0.023
4005,0.0223
4006,0.0213
4007,0.02
4008,0.0194
4009,0.0185
4010,0.0178
4011,0.0173
4012,0.0166
4013,0.0167
4014,0.0164
4015,0.0163
4016,0.0163
4017,0.0163
4018,0.0163
4019,0.0161
4020,0.0164
4021,0.0163
4022,0.0162
4023,0.0161
4024,0.0161
4025,0.0163
4026,0.0162
4027,0.0162
4028,0.0163
4029,0.016
4030,0.016
4031,0.0162
4032,0.0163
4033,0.0166
4034,0.0173
4035,0.0177
4036,0.0183
4037,0.0187
4038,0.019
4039,0.0192
4040,0.0196
4041,0.0195
4042,0.0197
4043,0.0198
4044,0.0196
4045,0.0192
4046,0.0189
4047,0.0179
4048,0.0177
4049,0.0174
4050,0.0168
4051,0.0166
4052,0.0166
4053,0.0164
4054,0.0161
4055,0.016
4056,0.016
4057,0.0162
4058,0.016
4059,0.0161
4060,0.0161
4061,0.0162
4062,0.0161
4063,0.0162
4064,0.016
4065,0.0162
4066,0.0162
4067,0.0163
4068,0.0166
4069,0.0167
4070,0.0167
4071,0.017
4072,0.017
4073,0.017
4074,0.0173
4075,0.0175
4076,0.0174
4077,0.0173
4078,0.0174
4079,0.0174
4080,0.0174
4081,0.0172
4082,0.017
4083,0.017
4084,0.0168
4085,0.0166
4086,0.0168
4087,0.0168
4088,0.0166
4089,0.0166
4090,0.0166
4091,0.0168
4092,0.0167
4093,0.0167
4094,0.0168
4095,0.0168
4096,0.0168
4097,0.0168
4098,0.0168
4099,0.017
4100,0.017
4101,0.017
4102,0.0171
4103,0.0173
4104,0.0172
4105,0.0172
4106,0.0173
4107,0.0173
4108,0.0175
4109,0.0175
4110,0.0176
4111,0.0177
4112,0.0177
4113,0.0177
4114,0.0182
4115,0.0181
4116,0.0182
4117,0.0187
4118,0.019
4119,0.0192
4120,0.0195
4121,0.0199
4122,0.0207
4123,0.0212
4124,0.0217
4125,0.0238
4126,0.0258
4127,0.032
4128,0.1448
4129,0.3563
4130,0.5673
4131,0.7756
4132,1.0846
4133,1.2584
4134,1.5177
4135,1.6498
4136,1.8084
4137,1.9569
4138,2.0144
4139,2.0548
4140,2.052
4141,1.9079
4142,1.6282
4143,1.3905
4144,1.1804
4145,0.9061
4146,0.725
4147,0.5528
4148,0.3474
4149,0.2818
4150,0.111
4151,0.0402
4152,0.0283
4153,0.0245
4154,0.0229
4155,0.0224
4156,0.022
4157,0.0219
4158,0.0223
4159,0.0271
4160,0.0584
4161,0.0828
4162,0.118
4163,0.141
4164,0.1604
4165,0.1911
4166,0.2054
4167,0.2189
4168,0.2346
4169,0.2457
4170,0.2471
4171,0.2509
4172,0.23
4173,0.2077
4174,0.1798
4175,0.1472
4176,0.1236
4177,0.0964
4178,0.0779
4179,0.0628
4180,0.0408
4181,0.0298
4182,0.0232
4183,0.0202
4184,0.0199
4185,0.0196
4186,0.0193
4187,0.0193
4188,0.0193
4189,0.0192
4190,0.0197
4191,0.0205
4192,0.021
4193,0.0217
4194,0.0222
4195,0.0226
4196,0.0232
4197,0.0236
4198,0.0236
4199,0.024
4200,0.0239
4201,0.0242
4202,0.0238
4203,0.0232
4204,0.0225
4205,0.0219
4206,0.0214
4207,0.0208
4208,0.0203
4209,0.0197
4210,0.0192
4211,0.0192
4212,0.0187
4213,0.0187
4214,0.0186
4215,0.0186
4216,0.0184
4217,0.0186
4218,0.0186
4219,0.0188
4220,0.0186
4221,0.0187
4222,0.0185
4223,0.0186
4224,0.0186
4225,0.0185
4226,0.0186
4227,0.0187
4228,0.0188
4229,0.0189
4230,0.0186
4231,0.0185
4232,0.0186
4233,0.0186
4234,0.0185
4235,0.0185
4236,0.0184
4237,0.0184
4238,0.0186
4239,0.0184
4240,0.0192
4241,0.0218
4242,0.0261
4243,0.034
4244,0.0375
4245,0.0429
4246,0.0464
4247,0.0498
4248,0.0549
4249,0.0581
4250,0.06
4251,0.0622
4252,0.063
4253,0.0631
4254,0.059
4255,0.0544
4256,0.0471
4257,0.0435
4258,0.0396
4259,0.0347
4260,0.031
4261,0.0281
4262,0.0241
4263,0.0222
4264,0.0208
4265,0.0204
4266,0.0206
4267,0.0211
4268,0.0213
4269,0.0218
4270,0.0224
4271,0.0227
4272,0.0229
4273,0.0237
4274,0.024
4275,0.0268
4276,0.0289
4277,0.0302
4278,0.0314
4279,0.032
4280,0.0322
4281,0.0333
4282,0.0351
4283,0.039
4284,0.0438
4285,0.0495
4286,0.058
4287,0.0618
4288,0.0654
4289,0.0693
4290,0.0711
4291,0.0731
4292,0.0741
4293,0.0749
4294,0.0741
4295,0.0712
4296,0.0686
4297,0.0609
4298,0.0547
4299,0.0488
4300,0.0405
4301,0.0362
4302,0.0303
4303,0.0274
4304,0.0243
4305,0.021
4306,0.0197
4307,0.0189
4308,0.0184
4309,0.0184
4310,0.0184
4311,0.0183
4312,0.0185
4313,0.0184
4314,0.0187
4315,0.0191
4316,0.0196
4317,0.0199
4318,0.0201
4319,0.0202
4320,0.0204
4321,0.02
4322,0.0198
4323,0.0199
4324,0.0193
4325,0.0194
4326,0.019
4327,0.0188
4328,0.0187
4329,0.0186
4330,0.0185
4331,0.0185
4332,0.0186
4333,0.0187
4334,0.0187
4335,0.0188
4336,0.0192
4337,0.0196
4338,0.0199
4339,0.02
4340,0.0203
4341,0.0206
4342,0.0209
4343,0.0221
4344,0.0235
4345,0.0261
4346,0.0273
4347,0.0279
4348,0.0299
4349,0.0311
4350,0.0325
4351,0.035
4352,0.0361
4353,0.0375
4354,0.0387
4355,0.0396
4356,0.0403
4357,0.0414
4358,0.0427
4359,0.0436
4360,0.0442
4361,0.0446
4362,0.0443
4363,0.0439
4364,0.0428
4365,0.0415
4366,0.0405
4367,0.0393
4368,0.0376
4369,0.0358
4370,0.0317
4371,0.0297
4372,0.0276
4373,0.0256
4374,0.0239
4375,0.0228
4376,0.0219
4377,0.0209
4378,0.0205
4379,0.0201
4380,0.0201
4381,0.0202
4382,0.0204
4383,0.0207
4384,0.0219
4385,0.0241
4386,0.0257
4387,0.0267
4388,0.0286
4389,0.0296
4390,0.0305
4391,0.0313
4392,0.0319
4393,0.0324
4394,0.0325
4395,0.0326
4396,0.0312
4397,0.0297
4398,0.0283
4399,0.0275
4400,0.0252
4401,0.0244
4402,0.0233
4403,0.0226
4404,0.0222
4405,0.0215
4406,0.0213
4407,0.0214
4408,0.0218
4409,0.0217
4410,0.0221
4411,0.0221
4412,0.0223
4413,0.0227
4414,0.0224
4415,0.0229
4416,0.0238
4417,0.0253
4418,0.0272
4419,0.0302
4420,0.0322
4421,0.0343
4422,0.0409
4423,0.0465
4424,0.0522
4425,0.0604
4426,0.0658
4427,0.0734
4428,0.0775
4429,0.0815
4430,0.0965
4431,0.1105
4432,0.1256
4433,0.1465
4434,0.1563
4435,0.1688
4436,0.1782
4437,0.1861
4438,0.2019
4439,0.2208
4440,0.4758
4441,1.1163
4442,2.278
4443,3.3858
4444,4.2427
4445,5.4944
4446,6.1553
4447,6.9657
4448,7.8174
4449,8.2986
4450,8.5765
4451,8.8522
4452,8.7165
4453,8.1377
4454,6.8871
4455,5.9623
4456,4.625
4457,3.7584
4458,3.0538
4459,2.2312
4460,1.3461
4461,0.8523
4462,0.4142
4463,0.1133
4464,0.0659
4465,0.0508
4466,0.042
4467,0.039
4468,0.0357
4469,0.0342
4470,0.0324
4471,0.0305
4472,0.0295
4473,0.0285
4474,0.0273
4475,0.0275
4476,0.0265
4477,0.0258
4478,0.0254
4479,0.0253
4480,0.0249
4481,0.0247
4482,0.0244
4483,0.0238
4484,0.0236
4485,0.0233
4486,0.0232
4487,0.0228
4488,0.0229
4489,0.0227
4490,0.0224
4491,0.0223
4492,0.0223
4493,0.0221
4494,0.0219
4495,0.0221
4496,0.0218
4497,0.0215
4498,0.0215
4499,0.0216
4500,0.0213
4501,0.0212
4502,0.0214
4503,0.0212
4504,0.0211
4505,0.021
4506,0.021
4507,0.0207
4508,0.021
4509,0.0209
4510,0.0212
4511,0.021
4512,0.021
4513,0.0212
4514,0.0208
4515,0.0209
4516,0.021
4517,0.0208
4518,0.0207
4519,0.0205
4520,0.0208
4521,0.0207
4522,0.0207
4523,0.0205
4524,0.0204
4525,0.0202
4526,0.0205
4527,0.0204
4528,0.0204
4529,0.0204
4530,0.0203
4531,0.0203
4532,0.02
4533,0.0204
4534,0.0202
4535,0.02
4536,0.0203
4537,0.0203
4538,0.0201
4539,0.0204
4540,0.0202
4541,0.0204
4542,0.02
4543,0.0201
4544,0.0202
4545,0.0202
4546,0.0201
4547,0.0201
4548,0.0202
4549,0.02
4550,0.0202
4551,0.02
4552,0.02
4553,0.0202
4554,0.0201
4555,0.02
4556,0.02
4557,0.0201
4558,0.02
4559,0.0201
4560,0.0202
4561,0.0203
4562,0.0203
4563,0.0203
4564,0.0203
4565,0.02
4566,0.0202
4567,0.0203
4568,0.0204
4569,0.0203
4570,0.0203
4571,0.0205
4572,0.0205
4573,0.0205
4574,0.0208
4575,0.0205
4576,0.0208
4577,0.0207
4578,0.0208
4579,0.0208
4580,0.0208
4581,0.0207
4582,0.0207
4583,0.0203
4584,0.0205
4585,0.0203
4586,0.0205
4587,0.0205
4588,0.0203
4589,0.0202
4590,0.0204
4591,0.0202
4592,0.0205
4593,0.0208
4594,0.0212
4595,0.0225
4596,0.0234
4597,0.0241
4598,0.0254
4599,0.0262
4600,0.0267
4601,0.0275
4602,0.0278
4603,0.0283
4604,0.0285
4605,0.0286
4606,0.0289
4607,0.0284
4608,0.0278
4609,0.0273
4610,0.0259
4611,0.0253
4612,0.0249
4613,0.0242
4614,0.0235
4615,0.0231
4616,0.023
4617,0.0227
4618,0.0223
4619,0.0222
4620,0.0219
4621,0.0215
4622,0.0214
4623,0.0211
4624,0.0208
4625,0.0207
4626,0.0206
4627,0.0205
4628,0.0204
4629,0.0204
4630,0.0204
4631,0.0204
4632,0.0204
4633,0.0203
4634,0.0202
4635,0.0203
4636,0.0204
4637,0.0204
4638,0.0205
4639,0.0204
4640,0.0203
4641,0.0205
4642,0.0204
4643,0.0204
4644,0.0203
4645,0.0204
4646,0.0203
4647,0.0203
4648,0.0204
4649,0.0204
4650,0.0202
4651,0.0201
4652,0.0204
4653,0.0204
4654,0.0205
4655,0.0206
4656,0.0206
4657,0.0209
4658,0.0209
4659,0.0212
4660,0.0211
4661,0.0214
4662,0.0214
4663,0.0217
4664,0.0215
4665,0.0217
4666,0.0214
4667,0.0215
4668,0.0218
4669,0.0214
4670,0.0215
4671,0.0213
4672,0.0213
4673,0.0213
4674,0.0213
4675,0.0211
4676,0.021
4677,0.0208
4678,0.0211
4679,0.0209
4680,0.0212
4681,0.0212
4682,0.0216
4683,0.0218
4684,0.0223
4685,0.0224
4686,0.0224
4687,0.0225
4688,0.0224
4689,0.0227
4690,0.0228
4691,0.0224
4692,0.0224
4693,0.0222
4694,0.0217
4695,0.0213
4696,0.0211
4697,0.0208
4698,0.0202
4699,0.0203
4700,0.02
4701,0.0199
4702,0.0197
4703,0.0197
4704,0.0196
4705,0.0196
4706,0.0199
4707,0.0195
4708,0.0195
4709,0.0195
4710,0.0194
4711,0.0193
4712,0.0194
4713,0.0198
4714,0.0198
4715,0.0198
4716,0.0198
4717,0.0202
4718,0.0202
4719,0.0201
4720,0.0205
4721,0.0204
4722,0.0202
4723,0.0202
4724,0.0203
4725,0.0198
4726,0.0197
4727,0.0196
4728,0.0192
4729,0.0191
4730,0.0188
4731,0.0187
4732,0.0186
4733,0.0184
4734,0.0185
4735,0.0183
4736,0.0182
4737,0.0184
4738,0.0182
4739,0.0178
4740,0.0178
4741,0.0175
4742,0.0176
4743,0.0175
4744,0.0174
4745,0.0171
4746,0.0172
4747,0.0172
4748,0.0169
4749,0.017
4750,0.017
4751,0.0169
4752,0.0168
4753,0.017
4754,0.0169
4755,0.0169
4756,0.017
4757,0.0168
4758,0.0168
4759,0.0169
4760,0.0169
4761,0.0169
4762,0.0168
4763,0.0169
4764,0.0168
4765,0.0166
4766,0.0167
4767,0.0167
4768,0.0167
4769,0.0167
4770,0.0166
4771,0.0167
4772,0.0167
4773,0.0167
4774,0.0165
4775,0.0167
4776,0.0167
4777,0.0166
4778,0.0167
4779,0.0166
4780,0.0166
4781,0.0166
4782,0.0166
4783,0.0165
4784,0.0166
4785,0.017
4786,0.0174
4787,0.0178
4788,0.0181
4789,0.0184
4790,0.0185
4791,0.0188
4792,0.0191
4793,0.0189
4794,0.019
4795,0.019
4796,0.019
4797,0.0189
4798,0.0186
4799,0.0183
4800,0.0177
4801,0.0176
4802,0.0171
4803,0.0171
4804,0.0169
4805,0.0168
4806,0.0165
4807,0.0165
4808,0.0164
4809,0.0167
4810,0.0165
4811,0.0162
4812,0.0164
4813,0.0163
4814,0.0163
4815,0.0163
4816,0.0164
4817,0.0162
4818,0.0163
4819,0.0164
4820,0.0163
4821,0.0164
4822,0.0163
4823,0.0165
4824,0.0162
4825,0.0163
4826,0.0163
4827,0.0162
4828,0.0162
4829,0.0163
4830,0.0161
4831,0.0162
4832,0.0163
4833,0.0162
4834,0.0161
4835,0.0161
4836,0.0162
4837,0.0163
4838,0.0161
4839,0.0162
4840,0.0162
4841,0.0162
4842,0.0161
4843,0.0163
4844,0.0162
4845,0.0164
4846,0.0162
4847,0.0163
4848,0.0161
4849,0.0162
4850,0.0159
4851,0.0163
4852,0.0162
4853,0.0163
4854,0.0161
4855,0.0162
4856,0.0161
4857,0.0161
4858,0.0162
4859,0.0161
4860,0.0161
4861,0.0162
4862,0.0162
4863,0.0163
4864,0.016
4865,0.0162
4866,0.016
4867,0.016
4868,0.0161
4869,0.016
4870,0.0161
4871,0.016
4872,0.0159
4873,0.0158
4874,0.016
4875,0.016
4876,0.016
4877,0.0158
4878,0.016
4879,0.0159
4880,0.016
4881,0.0158
4882,0.016
4883,0.0158
4884,0.0159
4885,0.016
4886,0.0161
4887,0.016
4888,0.0159
4889,0.0159
4890,0.016
4891,0.0159
4892,0.0159
4893,0.0161
4894,0.0161
4895,0.0158
4896,0.0161
4897,0.0159
4898,0.0158
4899,0.0159
4900,0.0158
4901,0.0161
4902,0.0159
4903,0.0158
4904,0.0158
4905,0.016
4906,0.0158
4907,0.0159
4908,0.0158
4909,0.0159
4910,0.0159
4911,0.0159
4912,0.0159
4913,0.0159
4914,0.0159
4915,0.016
4916,0.0158
4917,0.0159
4918,0.0158
4919,0.0159
4920,0.0159
4921,0.0159
4922,0.0157
4923,0.0159
4924,0.0159
4925,0.0161
4926,0.0159
4927,0.0158
4928,0.016
4929,0.0161
4930,0.0159
4931,0.016
4932,0.016
4933,0.0159
4934,0.0159
4935,0.0158
4936,0.0158
4937,0.0159
4938,0.0159
4939,0.0157
4940,0.0158
4941,0.0158
4942,0.0158
4943,0.0159
4944,0.0157
4945,0.0157
4946,0.0157
4947,0.0158
4948,0.0157
4949,0.0158
4950,0.0159
4951,0.0157
4952,0.0158
4953,0.0157
4954,0.0157
4955,0.0156
4956,0.0158
4957,0.0158
4958,0.0157
4959,0.0158
4960,0.0158
4961,0.0158
4962,0.0159
4963,0.0159
4964,0.0159
4965,0.0159
4966,0.016
4967,0.016
4968,0.0159
4969,0.0159
4970,0.0161
4971,0.016
4972,0.016
4973,0.0163
4974,0.0161
4975,0.016
4976,0.0161
4977,0.0162
4978,0.0161
4979,0.0164
4980,0.0162
4981,0.0163
4982,0.0162
4983,0.0161
4984,0.0162
4985,0.0163
4986,0.0162
4987,0.0161
4988,0.0162
4989,0.0161
4990,0.0159
4991,0.0161
4992,0.0159
4993,0.016
4994,0.0158
4995,0.016
4996,0.0161
4997,0.0161
4998,0.0162
4999,0.0164
5000,0.0184
5001,0.0268
5002,0.0356
5003,0.0425
5004,0.0487
5005,0.0577
5006,0.0633
5007,0.0688
5008,0.0747
5009,0.079
5010,0.082
5011,0.0821
5012,0.0821
5013,0.0756
5014,0.0696
5015,0.0619
5016,0.0516
5017,0.0452
5018,0.037
5019,0.0317
5020,0.0271
5021,0.0208
5022,0.0179
5023,0.0167
5024,0.0163
5025,0.0162
5026,0.0162
5027,0.0161
5028,0.016
5029,0.016
5030,0.0161
5031,0.016
5032,0.0159
5033,0.0161
5034,0.016
5035,0.0159
5036,0.0161
5037,0.0158
5038,0.016
5039,0.0159
5040,0.016
5041,0.0159
5042,0.0159
5043,0.0158
5044,0.016
5045,0.016
5046,0.0159
5047,0.0159
5048,0.0161
5049,0.016
5050,0.0159
5051,0.0159
5052,0.0161
5053,0.0159
5054,0.0159
5055,0.016
5056,0.016
5057,0.0159
5058,0.016
5059,0.016
5060,0.016
5061,0.0158
5062,0.016
5063,0.016
5064,0.0159
5065,0.0161
5066,0.016
5067,0.0159
5068,0.0159
5069,0.0161
5070,0.0161
5071,0.0161
5072,0.0161
5073,0.016
5074,0.016
5075,0.0161
5076,0.016
5077,0.0162
5078,0.0161
5079,0.016
5080,0.0161
5081,0.016
5082,0.0161
5083,0.0161
5084,0.016
5085,0.016
5086,0.016
5087,0.0159
5088,0.0159
5089,0.0161
5090,0.0159
5091,0.0162
5092,0.0162
5093,0.016
5094,0.0159
5095,0.016
5096,0.0159
5097,0.016
5098,0.0161
5099,0.0162
5100,0.016
5101,0.016
5102,0.0162
5103,0.016
5104,0.0159
5105,0.0158
5106,0.0161
5107,0.016
5108,0.0162
5109,0.0162
5110,0.0163
5111,0.0162
5112,0.0164
5113,0.0163
5114,0.0164
5115,0.0164
5116,0.0165
5117,0.0166
5118,0.0167
5119,0.0166
5120,0.0165
5121,0.0166
5122,0.0166
5123,0.0163
5124,0.0163
5125,0.0163
5126,0.0162
5127,0.0161
5128,0.0164
5129,0.016
5130,0.0161
5131,0.016
5132,0.0162
5133,0.0162
5134,0.0163
5135,0.0161
5136,0.0161
5137,0.0163
5138,0.0164
5139,0.0162
5140,0.0164
5141,0.0164
5142,0.0163
5143,0.0164
5144,0.0164
5145,0.0165
5146,0.0164
5147,0.0163
5148,0.0164
5149,0.0165
5150,0.0165
5151,0.0163
5152,0.0164
5153,0.0163
5154,0.0163
5155,0.0163
5156,0.0163
5157,0.0162
5158,0.0162
5159,0.0162
5160,0.0161
5161,0.0159
5162,0.0161
5163,0.0164
5164,0.0162
5165,0.0161
5166,0.0163
5167,0.016
5168,0.0163
5169,0.0161
5170,0.0162
5171,0.0163
5172,0.0161
5173,0.0163
5174,0.0162
5175,0.0161
5176,0.016
5177,0.0163
5178,0.016
5179,0.0162
5180,0.0161
5181,0.0161
5182,0.0161
5183,0.0163
5184,0.0162
5185,0.016
5186,0.0161
5187,0.0159
5188,0.0162
5189,0.0163
5190,0.0161
5191,0.0162
5192,0.0161
5193,0.0163
5194,0.0162
5195,0.0163
5196,0.0161
5197,0.0162
5198,0.0163
5199,0.0161
5200,0.0161
5201,0.0163
5202,0.0161
5203,0.0161
5204,0.0162
5205,0.0162
5206,0.0163
5207,0.0162
5208,0.0164
5209,0.0163
5210,0.0163
5211,0.0165
5212,0.0164
5213,0.0164
5214,0.0165
5215,0.0164
5216,0.0164
5217,0.0164
5218,0.0164
5219,0.0162
5220,0.0163
5221,0.0162
5222,0.0163
5223,0.0163
5224,0.0162
5225,0.0162
5226,0.0161
5227,0.016
5228,0.0162
5229,0.0161
5230,0.0161
5231,0.0161
5232,0.0162
5233,0.0161
5234,0.0161
5235,0.0161
5236,0.0162
5237,0.0163
5238,0.0164
5239,0.0164
5240,0.0165
5241,0.0164
5242,0.0165
5243,0.0164
5244,0.0164
5245,0.0164
5246,0.0166
5247,0.0168
5248,0.0168
5249,0.0169
5250,0.0172
5251,0.0173
5252,0.0172
5253,0.0173
5254,0.0174
5255,0.0175
5256,0.0174
5257,0.0175
5258,0.0174
5259,0.0174
5260,0.0173
5261,0.0172
5262,0.0171
5263,0.0173
5264,0.0173
5265,0.0173
5266,0.0171
5267,0.0171
5268,0.0173
5269,0.0173
5270,0.0172
5271,0.0173
5272,0.0175
5273,0.0178
5274,0.0179
5275,0.0181
5276,0.0182
5277,0.0184
5278,0.0186
5279,0.0184
5280,0.0187
5281,0.0189
5282,0.0188
5283,0.0187
5284,0.0186
5285,0.0186
5286,0.0184
5287,0.0183
5288,0.018
5289,0.0177
5290,0.0177
5291,0.0177
5292,0.0174
5293,0.0173
5294,0.0172
5295,0.0175
5296,0.0171
5297,0.0173
5298,0.0174
5299,0.0174
5300,0.0174
5301,0.0172
5302,0.0173
5303,0.0173
5304,0.0174
5305,0.0174
5306,0.0174
5307,0.0175
5308,0.0176
5309,0.0177
5310,0.0177
5311,0.0178
5312,0.0179
5313,0.0178
5314,0.0179
5315,0.0181
5316,0.0181
5317,0.018
5318,0.0181
5319,0.0179
5320,0.018
5321,0.0176
5322,0.0176
5323,0.0176
5324,0.0173
5325,0.0174
5326,0.0173
5327,0.0172
5328,0.0172
5329,0.0171
5330,0.0171
5331,0.0169
5332,0.0172
5333,0.0169
5334,0.017
5335,0.017
5336,0.0173
5337,0.0172
5338,0.0172
5339,0.0171
5340,0.0173
5341,0.0174
5342,0.0174
5343,0.0174
5344,0.0174
5345,0.0174
5346,0.0174
5347,0.0172
5348,0.0173
5349,0.017
5350,0.0172
5351,0.017
5352,0.0171
5353,0.0169
5354,0.0169
5355,0.0169
5356,0.0169
5357,0.0167
5358,0.0165
5359,0.0168
5360,0.0167
5361,0.0166
5362,0.0167
5363,0.0166
5364,0.0165
5365,0.0165
5366,0.0167
5367,0.0166
5368,0.0167
5369,0.0168
5370,0.0167
5371,0.0166
5372,0.0167
5373,0.0168
5374,0.0168
5375,0.0166
5376,0.0167
5377,0.0166
5378,0.0166
5379,0.0168
5380,0.0167
5381,0.0166
5382,0.0166
5383,0.0167
5384,0.0167
5385,0.0167
5386,0.0167
5387,0.0168
5388,0.0166
5389,0.0167
5390,0.0166
5391,0.0166
5392,0.0166
5393,0.0167
5394,0.0166
5395,0.0165
5396,0.0165
5397,0.0166
5398,0.0166
5399,0.0166
5400,0.0166
5401,0.0168
5402,0.0166
5403,0.0166
5404,0.0166
5405,0.0167
5406,0.0168
5407,0.0168
5408,0.0168
5409,0.0169
5410,0.0168
5411,0.0167
5412,0.0168
5413,0.0168
5414,0.0169
5415,0.0171
5416,0.0173
5417,0.0172
5418,0.0176
5419,0.0176
5420,0.0179
5421,0.0176
5422,0.0177
5423,0.0174
5424,0.0174
5425,0.0174
5426,0.0171
5427,0.0171
5428,0.0169
5429,0.0168
5430,0.0168
5431,0.0168
5432,0.0167
5433,0.0166
5434,0.0168
5435,0.0168
5436,0.0169
5437,0.0169
5438,0.017
5439,0.0172
5440,0.0172
5441,0.0174
5442,0.0175
5443,0.0174
5444,0.0176
5445,0.0178
5446,0.0174
5447,0.0177
5448,0.0177
5449,0.0176
5450,0.0175
5451,0.0177
5452,0.0173
5453,0.0171
5454,0.0173
5455,0.017
5456,0.0169
5457,0.0169
5458,0.0169
5459,0.0169
5460,0.0171
5461,0.0169
5462,0.017
5463,0.017
5464,0.0171
5465,0.0172
5466,0.0171
5467,0.0169
5468,0.017
5469,0.0172
5470,0.0171
5471,0.017
5472,0.0172
5473,0.0172
5474,0.0174
5475,0.0174
5476,0.0173
5477,0.0175
5478,0.0173
5479,0.0174
5480,0.0175
5481,0.0173
5482,0.0174
5483,0.0176
5484,0.0174
5485,0.0174
5486,0.0175
5487,0.0176
5488,0.0175
5489,0.0173
5490,0.0175
5491,0.0174
5492,0.0176
5493,0.0174
5494,0.0176
5495,0.0176
5496,0.0176
5497,0.0176
5498,0.0177
5499,0.0178
5500,0.0178
5501,0.0179
5502,0.0179
5503,0.0179
5504,0.018
5505,0.0182
5506,0.0183
5507,0.0182
5508,0.0184
5509,0.0185
5510,0.0188
5511,0.0187
5512,0.0187
5513,0.0188
5514,0.0193
5515,0.0191
5516,0.0191
5517,0.0194
5518,0.0193
5519,0.0196
5520,0.0196
5521,0.0195
5522,0.0199
5523,0.0202
5524,0.0204
5525,0.0206
5526,0.0207
5527,0.0211
5528,0.0215
5529,0.0219
5530,0.0221
5531,0.0229
5532,0.0233
5533,0.024
5534,0.0245
5535,0.025
5536,0.0265
5537,0.0273
5538,0.0297
5539,0.0316
5540,0.035
5541,0.0385
5542,0.0437
5543,0.0623
5544,0.1715
5545,0.5805
5546,1.3137
5547,1.8258
5548,2.2139
5549,2.8778
5550,3.5176
5551,3.9241
5552,4.4384
5553,4.8171
5554,5.0412
5555,5.1991
5556,5.2729
5557,5.193
5558,4.5511
5559,4.0404
5560,3.2529
5561,2.8161
5562,2.226
5563,1.6725
5564,1.2974
5565,0.924
5566,0.4534
5567,0.3287
5568,0.1
5569,0.048
5570,0.0389
5571,0.0349
5572,0.0308
5573,0.0291
5574,0.0272
5575,0.0257
5576,0.0252
5577,0.024
5578,0.0236
5579,0.0229
5580,0.0224
5581,0.0222
5582,0.0223
5583,0.0222
5584,0.0219
5585,0.022
5586,0.022
5587,0.0219
5588,0.0217
5589,0.0218
5590,0.0218
5591,0.0216
5592,0.0213
5593,0.0212
5594,0.0209
5595,0.0207
5596,0.0198
5597,0.0197
5598,0.0197
5599,0.0195
5600,0.0192
5601,0.0191
5602,0.0188
5603,0.0189
5604,0.0186
5605,0.0186
5606,0.0183
5607,0.0183
5608,0.0182
5609,0.018
5610,0.0181
5611,0.0182
5612,0.0181
5613,0.018
5614,0.0179
5615,0.0181
5616,0.0181
5617,0.0181
5618,0.0179
5619,0.0179
5620,0.0178
5621,0.0178
5622,0.0177
5623,0.0177
5624,0.0176
5625,0.0176
5626,0.0174
5627,0.0177
5628,0.0175
5629,0.0175
5630,0.0173
5631,0.0174
5632,0.0173
5633,0.0174
5634,0.0175
5635,0.0173
5636,0.0173
5637,0.0173
5638,0.0173
5639,0.0174
5640,0.0174
5641,0.0175
5642,0.0173
5643,0.0174
5644,0.0176
5645,0.0181
5646,0.0184
5647,0.0185
5648,0.0189
5649,0.0188
5650,0.0191
5651,0.0191
5652,0.0193
5653,0.0195
5654,0.0195
5655,0.0194
5656,0.0192
5657,0.0188
5658,0.0188
5659,0.0186
5660,0.0181
5661,0.0182
5662,0.0181
5663,0.0179
5664,0.0178
5665,0.0177
5666,0.0176
5667,0.0177
5668,0.0177
5669,0.0177
5670,0.0175
5671,0.0175
5672,0.0173
5673,0.0175
5674,0.0174
5675,0.0171
5676,0.0172
5677,0.0173
5678,0.0172
5679,0.0172
5680,0.0173
5681,0.0176
5682,0.0173
5683,0.0173
5684,0.0174
5685,0.0175
5686,0.0175
5687,0.0174
5688,0.0173
5689,0.0173
5690,0.0173
5691,0.0173
5692,0.0176
5693,0.0181
5694,0.0184
5695,0.0186
5696,0.0188
5697,0.0188
5698,0.019
5699,0.0192
5700,0.0191
5701,0.0192
5702,0.0192
5703,0.019
5704,0.0187
5705,0.0185
5706,0.0181
5707,0.0178
5708,0.0176
5709,0.0174
5710,0.0171
5711,0.017
5712,0.017
5713,0.0171
5714,0.017
5715,0.0169
5716,0.0169
5717,0.0168
5718,0.0169
5719,0.0169
5720,0.0167
5721,0.0168
5722,0.0168
5723,0.0169
5724,0.0169
5725,0.017
5726,0.0169
5727,0.0168
5728,0.017
5729,0.017
5730,0.017
5731,0.017
5732,0.0169
5733,0.0171
5734,0.017
5735,0.0173
5736,0.0176
5737,0.0175
5738,0.0176
5739,0.0178
5740,0.0179
5741,0.018
5742,0.018
5743,0.0182
5744,0.0182
5745,0.0181
5746,0.0181
5747,0.0181
5748,0.0179
5749,0.0178
5750,0.0175
5751,0.0175
5752,0.0173
5753,0.0173
5754,0.0171
5755,0.0173
5756,0.0172
5757,0.0173
5758,0.0173
5759,0.0174
5760,0.0177
5761,0.0179
5762,0.018
5763,0.0182
5764,0.0183
5765,0.0186
5766,0.0186
5767,0.019
5768,0.019
5769,0.019
5770,0.019
5771,0.019
5772,0.0188
5773,0.0188
5774,0.0187
5775,0.0185
5776,0.0182
5777,0.0183
5778,0.0181
5779,0.018
5780,0.0179
5781,0.0181
5782,0.0178
5783,0.018
5784,0.0179
5785,0.0179
5786,0.0177
5787,0.0178
5788,0.0175
5789,0.0177
5790,0.0175
5791,0.0176
5792,0.0175
5793,0.0175
5794,0.0174
5795,0.0176
5796,0.0173
5797,0.0173
5798,0.0174
5799,0.0173
5800,0.0174
5801,0.0173
5802,0.0173
5803,0.0173
5804,0.0172
5805,0.0173
5806,0.0174
5807,0.0173
5808,0.0174
5809,0.0172
5810,0.0172
5811,0.0171
5812,0.0174
5813,0.0172
5814,0.0172
5815,0.0171
5816,0.0172
5817,0.0171
5818,0.0171
5819,0.0171
5820,0.0173
5821,0.0172
5822,0.0172
5823,0.0173
5824,0.0175
5825,0.0174
5826,0.0175
5827,0.0176
5828,0.0176
5829,0.0177
5830,0.0178
5831,0.0178
5832,0.0178
5833,0.0178
5834,0.0177
5835,0.0177
5836,0.0177
5837,0.0177
5838,0.0176
5839,0.0177
5840,0.0174
5841,0.0175
5842,0.0175
5843,0.0175
5844,0.0176
5845,0.0174
5846,0.0177
5847,0.0178
5848,0.018
5849,0.0184
5850,0.0189
5851,0.0202
5852,0.0219
5853,0.0524
5854,0.106
5855,0.1663
5856,0.2727
5857,0.3347
5858,0.3873
5859,0.4677
5860,0.5149
5861,0.5559
5862,0.6069
5863,0.6407
5864,0.6533
5865,0.6649
5866,0.6339
5867,0.5614
5868,0.4938
5869,0.4319
5870,0.3398
5871,0.2824
5872,0.2208
5873,0.158
5874,0.123
5875,0.1161
5876,0.1627
5877,0.2145
5878,0.2756
5879,0.3618
5880,0.4105
5881,0.4908
5882,0.5299
5883,0.5701
5884,0.6216
5885,0.6272
5886,0.6448
5887,0.6234
5888,0.5755
5889,0.5001
5890,0.4242
5891,0.3712
5892,0.2866
5893,0.2261
5894,0.1854
5895,0.1204
5896,0.0839
5897,0.0529
5898,0.0272
5899,0.0218
5900,0.0198
5901,0.0188
5902,0.0183
5903,0.0179
5904,0.0176
5905,0.0175
5906,0.0173
5907,0.0169
5908,0.017
5909,0.0167
5910,0.0166
5911,0.0166
5912,0.0164
5913,0.0166
5914,0.0164
5915,0.0163
5916,0.0162
5917,0.0162
5918,0.0163
5919,0.0162
5920,0.0161
5921,0.0161
5922,0.0164
5923,0.0161
5924,0.0161
5925,0.0162
5926,0.0161
5927,0.0162
5928,0.0162
5929,0.0162
5930,0.0162
5931,0.0163
5932,0.0162
5933,0.0163
5934,0.0163
5935,0.0159
5936,0.016
5937,0.016
5938,0.0158
5939,0.0157
5940,0.0159
5941,0.0158
5942,0.0158
5943,0.0156
5944,0.0157
5945,0.0158
5946,0.0158
5947,0.016
5948,0.0161
5949,0.0161
5950,0.0164
5951,0.0166
5952,0.0166
5953,0.0167
5954,0.0166
5955,0.0167
5956,0.0167
5957,0.0167
5958,0.0165
5959,0.0165
5960,0.0163
5961,0.0161
5962,0.0162
5963,0.016
5964,0.0159
5965,0.0161
5966,0.0158
5967,0.0159
5968,0.0159
5969,0.0161
5970,0.016
5971,0.0163
5972,0.0163
5973,0.0164
5974,0.0166
5975,0.0168
5976,0.0171
5977,0.0172
5978,0.0174
5979,0.0175
5980,0.0175
5981,0.0174
5982,0.0175
5983,0.0174
5984,0.0174
5985,0.0172
5986,0.0171
5987,0.0168
5988,0.0165
5989,0.0163
5990,0.0161
5991,0.016
5992,0.0158
5993,0.0157
5994,0.0156
5995,0.0156
5996,0.0156
5997,0.0159
5998,0.0161
5999,0.0164
6000,0.0165
6001,0.0168
6002,0.017
6003,0.0171
6004,0.0171
6005,0.0172
6006,0.0173
6007,0.0172
6008,0.0174
6009,0.0172
6010,0.017
6011,0.0168
6012,0.0166
6013,0.0163
6014,0.0163
6015,0.0162
6016,0.0162
6017,0.0161
6018,0.0161
6019,0.0162
6020,0.0162
6021,0.0161
6022,0.0163
6023,0.0162
6024,0.0163
6025,0.0163
6026,0.0161
6027,0.0161
6028,0.0161
6029,0.0158
6030,0.016
6031,0.0157
6032,0.0159
6033,0.0158
6034,0.0157
6035,0.0157
6036,0.0157
6037,0.0158
6038,0.0158
6039,0.0157
6040,0.0156
6041,0.0156
6042,0.0157
6043,0.0154
6044,0.0157
6045,0.0155
6046,0.0153
6047,0.0154
6048,0.0156
6049,0.0154
6050,0.0153
6051,0.0153
6052,0.0153
6053,0.0153
6054,0.0154
6055,0.0154
6056,0.0155
6057,0.0156
6058,0.0154
6059,0.0154
6060,0.0155
6061,0.0154
6062,0.0157
6063,0.0154
6064,0.0154
6065,0.0157
6066,0.0156
6067,0.0156
6068,0.0155
6069,0.0154
6070,0.0155
6071,0.0156
6072,0.0154
6073,0.0156
6074,0.0157
6075,0.0157
6076,0.0157
6077,0.0157
6078,0.0158
6079,0.0157
6080,0.0157
6081,0.0158
6082,0.0158
6083,0.0156
6084,0.0159
6085,0.0158
6086,0.0159
6087,0.0158
6088,0.0157
6089,0.0158
6090,0.0156
6091,0.0159
6092,0.0157
6093,0.0156
6094,0.0156
6095,0.0156
6096,0.0157
6097,0.0157
6098,0.0158
6099,0.0155
6100,0.0156
6101,0.0156
6102,0.0156
6103,0.0157
6104,0.0155
6105,0.0155
6106,0.0154
6107,0.0157
6108,0.0156
6109,0.0157
6110,0.0156
6111,0.0157
6112,0.0155
6113,0.0158
6114,0.0158
6115,0.0162
6116,0.0168
6117,0.0177
6118,0.0184
6119,0.019
6120,0.0195
6121,0.0199
6122,0.0204
6123,0.0206
6124,0.0208
6125,0.0209
6126,0.0213
6127,0.021
6128,0.021
6129,0.0205
6130,0.0199
6131,0.0195
6132,0.019
6133,0.0188
6134,0.0183
6135,0.0183
6136,0.0177
6137,0.0178
6138,0.0178
6139,0.0178
6140,0.0174
6141,0.0171
6142,0.017
6143,0.0169
6144,0.0167
6145,0.0167
6146,0.0168
6147,0.0167
6148,0.0165
6149,0.0167
6150,0.0166
6151,0.0167
6152,0.0167
6153,0.0165
6154,0.0164
6155,0.0165
6156,0.0163
6157,0.0163
6158,0.016
6159,0.0161
6160,0.0161
6161,0.0162
6162,0.0161
6163,0.016
6164,0.0162
6165,0.0161
6166,0.0164
6167,0.0162
6168,0.0163
6169,0.0164
6170,0.0161
6171,0.0159
6172,0.0157
6173,0.0157
6174,0.0155
6175,0.0155
6176,0.0152
6177,0.0151
6178,0.015
6179,0.0149
6180,0.015
6181,0.015
6182,0.015
6183,0.0149
6184,0.0151
6185,0.0151
6186,0.0152
6187,0.0152
6188,0.0152
6189,0.0152
6190,0.0153
6191,0.0154
6192,0.0156
6193,0.0155
6194,0.0156
6195,0.0157
6196,0.0157
6197,0.0158
6198,0.0157
6199,0.0158
6200,0.0158
6201,0.0156
6202,0.0157
6203,0.0155
6204,0.0154
6205,0.0152
6206,0.0153
6207,0.0151
6208,0.0153
6209,0.0156
6210,0.0157
6211,0.0159
6212,0.0162
6213,0.0165
6214,0.0168
6215,0.0169
6216,0.0172
6217,0.0174
6218,0.0175
6219,0.0176
6220,0.0174
6221,0.0175
6222,0.0169
6223,0.0167
6224,0.0166
6225,0.0161
6226,0.0159
6227,0.0156
6228,0.0154
6229,0.0151
6230,0.0149
6231,0.015
6232,0.015
6233,0.0151
6234,0.015
6235,0.0151
6236,0.0151
6237,0.0152
6238,0.0152
6239,0.0151
6240,0.0153
6241,0.0154
6242,0.0153
6243,0.0152
6244,0.0153
6245,0.0151
6246,0.0152
6247,0.0152
6248,0.015
6249,0.015
6250,0.0151
6251,0.015
6252,0.0149
6253,0.0151
6254,0.0149
6255,0.0149
6256,0.0148
6257,0.0151
6258,0.0152
6259,0.0151
6260,0.0152
6261,0.0156
6262,0.0154
6263,0.0156
6264,0.0157
6265,0.0156
6266,0.0157
6267,0.0159
6268,0.0158
6269,0.0157
6270,0.0156
6271,0.0155
6272,0.0152
6273,0.015
6274,0.015
6275,0.0149
6276,0.0148
6277,0.0147
6278,0.0147
6279,0.0147
6280,0.0147
6281,0.0146
6282,0.0147
6283,0.0146
6284,0.0146
6285,0.0147
6286,0.0145
6287,0.0144
6288,0.0146
6289,0.0146
6290,0.0145
6291,0.0146
6292,0.0146
6293,0.0146
6294,0.0144
6295,0.0145
6296,0.0145
6297,0.0146
6298,0.0148
6299,0.0148
6300,0.0148
6301,0.015
6302,0.015
6303,0.0151
6304,0.0152
6305,0.0154
6306,0.0154
6307,0.0154
6308,0.0155
6309,0.0155
6310,0.0154
6311,0.0153
6312,0.0153
6313,0.0151
6314,0.0149
6315,0.015
6316,0.0148
6317,0.0148
6318,0.0148
6319,0.0148
6320,0.0149
6321,0.0154
6322,0.0154
6323,0.0155
6324,0.0158
6325,0.016
6326,0.016
6327,0.0161
6328,0.0164
6329,0.0164
6330,0.0163
6331,0.0164
6332,0.0162
6333,0.016
6334,0.0158
6335,0.0156
6336,0.0158
6337,0.0156
6338,0.0157
6339,0.0157
6340,0.0159
6341,0.016
6342,0.016
6343,0.016
6344,0.0162
6345,0.0162
6346,0.0164
6347,0.0164
6348,0.0167
6349,0.0168
6350,0.0168
6351,0.0169
6352,0.0171
6353,0.0172
6354,0.0172
6355,0.0174
6356,0.0173
6357,0.0174
6358,0.0173
6359,0.0172
6360,0.017
6361,0.0166
6362,0.0163
6363,0.016
6364,0.0156
6365,0.0153
6366,0.0151
6367,0.0149
6368,0.0148
6369,0.0146
6370,0.0146
6371,0.0146
6372,0.0145
6373,0.0145
6374,0.0145
6375,0.0144
6376,0.0144
6377,0.0145
6378,0.0145
6379,0.0146
6380,0.0145
6381,0.0146
6382,0.0146
6383,0.0147
6384,0.0146
6385,0.0145
6386,0.0148
6387,0.0148
6388,0.0148
6389,0.0148
6390,0.0148
6391,0.015
6392,0.0149
6393,0.0151
6394,0.0151
6395,0.0151
6396,0.0152
6397,0.0151
6398,0.015
6399,0.0152
6400,0.0152
6401,0.015
6402,0.015
6403,0.015
6404,0.0148
6405,0.0149
6406,0.0148
6407,0.0146
6408,0.0147
6409,0.0145
6410,0.0145
6411,0.0145
6412,0.0144
6413,0.0145
6414,0.0144
6415,0.0146
6416,0.0144
6417,0.0144
6418,0.0143
6419,0.0144
6420,0.0145
6421,0.0145
6422,0.0145
6423,0.0144
6424,0.0143
6425,0.0144
6426,0.0144
6427,0.0143
6428,0.0144
6429,0.0143
6430,0.0142
6431,0.0143
6432,0.0142
6433,0.0143
6434,0.0144
6435,0.0142
6436,0.0142
6437,0.0143
6438,0.0142
6439,0.0144
6440,0.0143
6441,0.0143
6442,0.0145
6443,0.0144
6444,0.0142
6445,0.0143
6446,0.0144
6447,0.0143
6448,0.0143
6449,0.0142
6450,0.0145
6451,0.0143
6452,0.0145
6453,0.0144
6454,0.0145
6455,0.0147
6456,0.0148
6457,0.0146
6458,0.0146
6459,0.0146
6460,0.0147
6461,0.0146
6462,0.0146
6463,0.0146
6464,0.0146
6465,0.0147
6466,0.0145
6467,0.0146
6468,0.0145
6469,0.0147
6470,0.0146
6471,0.0149
6472,0.0151
6473,0.0149
6474,0.0153
6475,0.0152
6476,0.0153
6477,0.0153
6478,0.0154
6479,0.0155
6480,0.0152
6481,0.0152
6482,0.0151
6483,0.015
6484,0.0148
6485,0.0147
6486,0.0146
6487,0.0146
6488,0.0144
6489,0.0143
6490,0.0143
6491,0.0142
6492,0.0144
6493,0.0144
6494,0.0143
6495,0.0143
6496,0.0144
6497,0.0144
6498,0.0143
6499,0.0143
6500,0.0148
6501,0.015
6502,0.0157
6503,0.0168
6504,0.0174
6505,0.0177
6506,0.0183
6507,0.0187
6508,0.019
6509,0.0191
6510,0.0192
6511,0.0195
6512,0.0194
6513,0.0192
6514,0.0182
6515,0.0178
6516,0.0171
6517,0.0163
6518,0.016
6519,0.0155
6520,0.015
6521,0.015
6522,0.0146
6523,0.0143
6524,0.0145
6525,0.0143
6526,0.0143
6527,0.0142
6528,0.0144
6529,0.0144
6530,0.0144
6531,0.0143
6532,0.0142
6533,0.0142
6534,0.0143
6535,0.0143
6536,0.0142
6537,0.0142
6538,0.0141
6539,0.0143
6540,0.0141
6541,0.0142
6542,0.0142
6543,0.0142
6544,0.0143
6545,0.0143
6546,0.0142
6547,0.0143
6548,0.0141
6549,0.0143
6550,0.0142
6551,0.0142
6552,0.0143
6553,0.0143
6554,0.0142
6555,0.0144
6556,0.0143
6557,0.0141
6558,0.0143
6559,0.0143
6560,0.0142
6561,0.0144
6562,0.0144
6563,0.0142
6564,0.0142
6565,0.0142
6566,0.0143
6567,0.0143
6568,0.0143
6569,0.0143
6570,0.0143
6571,0.0142
6572,0.0142
6573,0.0141
6574,0.0142
6575,0.0142
6576,0.0142
6577,0.0142
6578,0.0141
6579,0.0144
6580,0.0141
6581,0.0141
6582,0.0141
6583,0.0143
6584,0.0143
6585,0.0141
6586,0.0141
6587,0.0143
6588,0.014
6589,0.0143
6590,0.0143
6591,0.0143
6592,0.0143
6593,0.0143
6594,0.014
6595,0.0142
6596,0.0142
6597,0.0142
6598,0.0141
6599,0.0142
6600,0.0143
6601,0.0141
6602,0.0141
6603,0.0142
6604,0.0142
6605,0.0143
6606,0.0141
6607,0.0141
6608,0.0142
6609,0.0142
6610,0.0142
6611,0.0142
6612,0.0141
6613,0.0141
6614,0.0141
6615,0.0141
6616,0.0141
6617,0.0141
6618,0.0142
6619,0.014
6620,0.0141
6621,0.0142
6622,0.0141
6623,0.0143
6624,0.0142
6625,0.0143
6626,0.0142
6627,0.0142
6628,0.0142
6629,0.0145
6630,0.0145
6631,0.0145
6632,0.0144
6633,0.0144
6634,0.0145
6635,0.0145
6636,0.0144
6637,0.0142
6638,0.0143
6639,0.0143
6640,0.0142
6641,0.0142
6642,0.0143
6643,0.0141
6644,0.0141
6645,0.0141
6646,0.0139
6647,0.014
6648,0.0143
6649,0.0141
6650,0.014
6651,0.0142
6652,0.0141
6653,0.014
6654,0.0141
6655,0.014
6656,0.014
6657,0.0142
6658,0.0141
6659,0.014
6660,0.014
6661,0.0141
6662,0.0142
6663,0.0143
6664,0.014
6665,0.0141
6666,0.0141
6667,0.014
6668,0.0141
6669,0.0142
6670,0.0141
6671,0.0141
6672,0.014
6673,0.0139
6674,0.014
6675,0.0141
6676,0.0141
6677,0.0141
6678,0.0141
6679,0.0141
6680,0.0141
6681,0.0141
6682,0.0141
6683,0.014
6684,0.0142
6685,0.014
6686,0.0141
6687,0.0141
6688,0.0142
6689,0.0142
6690,0.0144
6691,0.0144
6692,0.0146
6693,0.0147
6694,0.0146
6695,0.0147
6696,0.0148
6697,0.0148
6698,0.0147
6699,0.0147
6700,0.0146
6701,0.0145
6702,0.0144
6703,0.0145
6704,0.0143
6705,0.0143
6706,0.0142
6707,0.0142
6708,0.0142
6709,0.0142
6710,0.014
6711,0.0139
6712,0.014
6713,0.014
6714,0.0141
6715,0.014
6716,0.0141
6717,0.0141
6718,0.014
6719,0.0141
6720,0.0141
6721,0.0142
6722,0.0141
6723,0.014
6724,0.0141
6725,0.0142
6726,0.0141
6727,0.0141
6728,0.0141
6729,0.014
6730,0.014
6731,0.0141
6732,0.0141
6733,0.0142
6734,0.014
6735,0.0141
6736,0.014
6737,0.0139
6738,0.0139
6739,0.014
6740,0.014
6741,0.0141
6742,0.0141
6743,0.0141
6744,0.014
6745,0.0141
6746,0.0141
6747,0.0142
6748,0.0143
6749,0.0143
6750,0.0144
6751,0.0145
6752,0.0145
6753,0.0147
6754,0.0145
6755,0.0146
6756,0.0145
6757,0.0147
6758,0.0146
6759,0.0146
6760,0.0149
6761,0.0161
6762,0.017
6763,0.0184
6764,0.0194
6765,0.0202
6766,0.0214
6767,0.0223
6768,0.0229
6769,0.0241
6770,0.0248
6771,0.0252
6772,0.0255
6773,0.0253
6774,0.0245
6775,0.0233
6776,0.0226
6777,0.0213
6778,0.0205
6779,0.019
6780,0.0184
6781,0.0176
6782,0.0164
6783,0.0159
6784,0.0156
6785,0.015
6786,0.0148
6787,0.0146
6788,0.0144
6789,0.0143
6790,0.0142
6791,0.0142
6792,0.0142
6793,0.0144
6794,0.0142
6795,0.0143
6796,0.0143
6797,0.0143
6798,0.0143
6799,0.0143
6800,0.0143
6801,0.0146
6802,0.0147
6803,0.0149
6804,0.0148
6805,0.0151
6806,0.0154
6807,0.0157
6808,0.0157
6809,0.0159
6810,0.0161
6811,0.016
6812,0.0161
6813,0.0159
6814,0.0156
6815,0.0154
6816,0.0152
6817,0.0151
6818,0.0147
6819,0.0147
6820,0.0145
6821,0.0143
6822,0.0141
6823,0.014
6824,0.0141
6825,0.0142
6826,0.0142
6827,0.0141
6828,0.0141
6829,0.0139
6830,0.0141
6831,0.0141
6832,0.014
6833,0.0142
6834,0.0142
6835,0.0141
6836,0.0142
6837,0.0146
6838,0.0158
6839,0.0165
6840,0.0173
6841,0.0184
6842,0.0189
6843,0.0195
6844,0.0203
6845,0.0206
6846,0.021
6847,0.0212
6848,0.0211
6849,0.0212
6850,0.0207
6851,0.0199
6852,0.0187
6853,0.0181
6854,0.017
6855,0.0167
6856,0.0159
6857,0.0153
6858,0.015
6859,0.0147
6860,0.0145
6861,0.0146
6862,0.0144
6863,0.0143
6864,0.0144
6865,0.0143
6866,0.0143
6867,0.0142
6868,0.0142
6869,0.0141
6870,0.0141
6871,0.0141
6872,0.014
6873,0.0142
6874,0.0141
6875,0.0141
6876,0.014
6877,0.0141
6878,0.0143
6879,0.014
6880,0.0141
6881,0.0141
6882,0.0139
6883,0.0139
6884,0.014
6885,0.0139
6886,0.0139
6887,0.0141
6888,0.014
6889,0.0141
6890,0.014
6891,0.014
6892,0.0141
6893,0.014
6894,0.0138
6895,0.0141
6896,0.0141
6897,0.0139
6898,0.0141
6899,0.014
6900,0.0141
6901,0.0142
6902,0.0139
6903,0.0139
6904,0.0141
6905,0.014
6906,0.0141
6907,0.014
6908,0.0141
6909,0.0141
6910,0.0138
6911,0.014
6912,0.0141
6913,0.0141
6914,0.0139
6915,0.014
6916,0.0141
6917,0.014
6918,0.0141
6919,0.0141
6920,0.0142
6921,0.0141
6922,0.014
6923,0.014
6924,0.0141
6925,0.0142
6926,0.0141
6927,0.0143
6928,0.0141
6929,0.0143
6930,0.0141
6931,0.0141
6932,0.014
6933,0.0141
6934,0.0141
6935,0.014
6936,0.0141
6937,0.014
6938,0.0139
6939,0.014
6940,0.014
6941,0.0141
6942,0.0141
6943,0.0141
6944,0.0141
6945,0.0138
6946,0.0141
6947,0.0139
6948,0.0141
6949,0.0141
6950,0.0142
6951,0.014
6952,0.0141
6953,0.0141
6954,0.0141
6955,0.0141
6956,0.0149
6957,0.0157
6958,0.0162
6959,0.0171
6960,0.0176
6961,0.0183
6962,0.0187
6963,0.0187
6964,0.0193
6965,0.0193
6966,0.0195
6967,0.0196
6968,0.0191
6969,0.018
6970,0.0175
6971,0.017
6972,0.0162
6973,0.0159
6974,0.0155
6975,0.0152
6976,0.0149
6977,0.0148
6978,0.0148
6979,0.0147
6980,0.0147
6981,0.0147
6982,0.0147
6983,0.0148
6984,0.0146
6985,0.0146
6986,0.0144
6987,0.0143
6988,0.0144
6989,0.0143
6990,0.0143
6991,0.0152
6992,0.0164
6993,0.0175
6994,0.019
6995,0.02
6996,0.0214
6997,0.0223
6998,0.0233
6999,0.024
7000,0.0244
7001,0.0251
7002,0.0247
7003,0.0245
7004,0.0231
7005,0.022
7006,0.021
7007,0.0192
7008,0.0182
7009,0.0175
7010,0.0162
7011,0.0155
7012,0.0147
7013,0.0144
7014,0.0143
7015,0.0142
7016,0.0141
7017,0.0141
7018,0.0143
7019,0.0142
7020,0.0144
7021,0.0145
7022,0.0147
7023,0.0153
7024,0.0155
7025,0.0157
7026,0.016
7027,0.0163
7028,0.0165
7029,0.0165
7030,0.0166
7031,0.0166
7032,0.0165
7033,0.0163
7034,0.0162
7035,0.016
7036,0.0158
7037,0.0157
7038,0.0156
7039,0.0155
7040,0.0156
7041,0.0155
7042,0.0159
7043,0.0159
7044,0.0163
7045,0.017
7046,0.018
7047,0.0245
7048,0.0586
7049,0.1076
7050,0.1871
7051,0.2318
7052,0.2502
7053,0.3265
7054,0.3789
7055,0.4053
7056,0.4397
7057,0.4574
7058,0.4646
7059,0.4692
7060,0.4625
7061,0.4305
7062,0.3544
7063,0.3035
7064,0.2757
7065,0.1865
7066,0.1488
7067,0.1017
7068,0.0752
7069,0.0522
7070,0.028
7071,0.0206
7072,0.0177
7073,0.0163
7074,0.0158
7075,0.0154
7076,0.0153
7077,0.015
7078,0.015
7079,0.0149
7080,0.0149
7081,0.0149
7082,0.0147
7083,0.0147
7084,0.0146
7085,0.0146
7086,0.0145
7087,0.0145
7088,0.0144
7089,0.0144
7090,0.0144
7091,0.0144
7092,0.0143
7093,0.0143
7094,0.0143
7095,0.0142
7096,0.0142
7097,0.0142
7098,0.0143
7099,0.0142
7100,0.0142
7101,0.0142
7102,0.0141
7103,0.0142
7104,0.0142
7105,0.0142
7106,0.0141
7107,0.0141
7108,0.0142
7109,0.0143
7110,0.0144
7111,0.0143
7112,0.0142
7113,0.0145
7114,0.015
7115,0.0155
7116,0.0164
7117,0.0169
7118,0.0175
7119,0.018
7120,0.0182
7121,0.0187
7122,0.0188
7123,0.019
7124,0.0191
7125,0.0192
7126,0.019
7127,0.0182
7128,0.0179
7129,0.0169
7130,0.0164
7131,0.0159
7132,0.0155
7133,0.0152
7134,0.0151
